jMRUI Data Textfile

Filename: dataset14_nWS.txt

PointsInDataset: 2048      
DatasetsInFile: 1         
SamplingInterval: 2.5E-1    
ZeroOrderPhase: 0E0       
BeginTime: 0E0       
TransmitterFrequency: 1.2322E8  
MagneticField: 2.9E0     
TypeOfNucleus: 0E0       
NameOfPatient: dataset14_nWS
DateOfExperiment: 
Spectrometer: 
AdditionalInfo: dataset14_nWS
SignalNames: dataset14_nWS.txt;


Signal and FFT
sig(real)	sig(imag)	fft(real)	fft(imag)
Signal 1 out of 1 in file
49944.5690000	-17.7300190
49745.7090000	16.9564560
49411.7640000	75.4770600
49221.9000000	-4.3871250
48932.6240000	-48.9968550
48687.6960000	-48.5562740
48535.7910000	59.4732410
48389.4820000	38.0971880
48066.5610000	-61.0148520
47873.4010000	-63.4696660
47665.8850000	4.3578441
47428.2050000	21.3769580
47203.0400000	11.3479000
46908.7870000	-11.4893730
46775.7900000	38.4471870
46512.6890000	-65.8142870
46354.3990000	-70.9714280
46166.3720000	44.8417680
45813.8820000	21.3918480
45644.2840000	38.2818560
45507.2630000	34.8008600
45197.0500000	-13.0102710
44966.5220000	5.7828607
44718.0350000	84.2814070
44533.9350000	14.1994010
44334.5230000	-37.8979120
44204.1710000	-71.0198030
43915.1220000	-83.4292070
43758.1400000	59.9136090
43575.3780000	82.3511150
43332.8610000	30.2043400
43064.8740000	-57.5055770
42961.4610000	-16.5191120
42792.1210000	75.6672950
42605.2360000	82.9837730
42328.1010000	13.1565540
42191.1770000	17.8633170
41995.8220000	68.8490910
41704.0370000	78.0774530
41624.2190000	-16.4365150
41434.6110000	70.5293870
41152.6480000	10.7089870
40917.7830000	19.7758850
40798.6600000	55.2609290
40525.6690000	-16.3260610
40392.5080000	61.2650730
40265.2160000	-20.2004280
39930.6100000	-73.7779160
39816.9720000	-17.4516580
39667.5510000	-55.9756590
39435.1110000	37.6028760
39319.4150000	-80.2239720
39079.7500000	-14.5232110
38868.5140000	-69.3719650
38728.3550000	33.3698170
38516.6680000	-83.7164360
38391.1520000	-56.6870850
38138.3480000	44.9741050
38000.7590000	78.3894470
37766.7400000	20.4799590
37573.8520000	-36.6745850
37405.7380000	-44.1697700
37314.0270000	16.2537710
37076.1510000	-28.7712780
36984.9950000	65.8891720
36682.4760000	-38.3796630
36507.6450000	50.9912280
36423.8610000	-47.9244080
36315.9830000	-75.7680540
36040.8130000	17.8409290
35887.1580000	9.5788353
35802.8570000	-24.9643120
35479.7620000	-55.3416140
35397.3400000	71.3536370
35263.7590000	-57.3331770
35132.8360000	-44.1236030
34864.6490000	28.9253110
34755.1040000	-28.4226770
34626.0120000	-44.6592490
34398.6060000	52.4987620
34267.4030000	-30.1642610
34031.5840000	-41.9853690
33911.8670000	1.6973351
33686.4400000	29.3987160
33557.2980000	-33.6437580
33503.0340000	-0.7376129
33232.0140000	-66.4837560
33067.9600000	37.4459340
32897.6760000	-50.3656510
32900.5540000	1.1335101
32755.1770000	-65.1316410
32450.8450000	10.7285790
32392.1440000	84.3172760
32295.4640000	-37.4151420
32070.2470000	72.5589930
31981.1700000	-23.8852330
31707.4490000	84.1575870
31532.4820000	81.8908810
31519.1450000	36.8582510
31375.6790000	-30.3440880
31165.6160000	-48.3829840
30989.1900000	33.1302950
30928.4010000	-6.5903201
30690.5550000	-71.2935420
30624.9750000	13.2617100
30444.4670000	16.9006710
30352.8820000	63.5345230
30199.7710000	-6.3626568
29983.1220000	17.8328020
29853.4010000	25.4673100
29736.8380000	-7.0651562
29545.7230000	-3.5734060
29524.9640000	-42.1733730
29293.6780000	-71.4945540
29258.5360000	-33.1066680
28965.2110000	-16.5904640
28847.7570000	-51.7299440
28782.9370000	-77.8884500
28605.1410000	12.8035730
28556.5050000	-34.4263390
28393.9030000	-12.8303150
28169.9000000	-85.0204690
28172.4880000	-24.8125850
27958.6850000	66.5100650
27900.0640000	37.1421430
27692.8560000	-27.5269640
27611.8640000	-65.9281970
27410.7110000	-79.3658070
27277.5480000	18.9812720
27213.8780000	-85.0859330
27078.0980000	63.3443930
27008.6240000	74.3903440
26796.1360000	35.2792110
26734.4610000	-28.6254500
26593.8290000	-58.0216630
26375.9720000	56.6226550
26334.4270000	6.3024463
26229.2730000	25.6751300
25991.0040000	-1.1980793
25907.6920000	80.2968180
25733.4720000	63.5481600
25713.8740000	-56.1834900
25643.5570000	-77.5972750
25520.3470000	-29.9892860
25381.5730000	-58.5526400
25249.9880000	16.4706660
25060.7380000	-7.8369883
25053.0330000	15.4358780
24820.4060000	-32.8117900
24752.2980000	62.2106860
24577.8960000	-77.9586510
24428.8060000	-32.7558860
24402.7700000	-61.1153910
24324.2440000	-10.4075070
24201.8610000	-32.7770050
24091.8300000	79.6705440
23869.7040000	49.3715810
23826.5710000	-68.3785910
23698.6860000	-64.1830150
23597.4090000	-56.9992350
23463.8620000	40.5553660
23361.8310000	85.0632240
23333.4910000	2.1891673
23131.5390000	2.9014748
23045.9580000	67.4390850
22994.0310000	-68.7630350
22851.5540000	-46.7592810
22764.2620000	-35.8542450
22542.6350000	-60.0864570
22502.2540000	67.5404730
22337.3030000	-69.1289610
22226.0820000	82.1593430
22275.6910000	19.0303090
22162.7610000	35.7346780
21999.5900000	-11.1979520
21815.0810000	-19.1194750
21735.4590000	-12.8234720
21698.1180000	54.8536380
21515.5990000	57.1847020
21434.2510000	12.5827060
21454.2160000	73.3170160
21269.7910000	21.9911100
21106.2630000	-45.3771480
21120.2120000	78.4508100
20946.6530000	-62.1839580
20887.0460000	77.0306920
20833.9530000	-72.5175500
20658.7780000	-38.1015090
20545.5270000	-42.3960240
20450.0820000	-18.3126620
20352.1560000	-38.8278840
20313.9020000	-54.3534300
20188.3990000	26.7539880
20072.2430000	75.8341680
20024.0090000	-60.1960160
19917.8560000	-25.1648130
19826.5810000	47.5399470
19785.9660000	-41.6257000
19636.7340000	24.6483260
19565.7700000	-32.3888280
19469.5540000	37.1172090
19346.3030000	13.4467420
19345.2240000	-20.6898840
19206.5070000	-46.2083270
19054.6280000	-54.3850850
18979.1080000	39.2865500
18871.6000000	-24.6635310
18907.3460000	14.4201740
18770.8700000	-66.7955160
18565.5420000	-26.4259690
18602.0350000	67.7412960
18543.7110000	-41.3882350
18401.7910000	8.8296078
18274.7670000	47.3035910
18264.7740000	-66.1984650
18202.1130000	-66.7866130
17964.9190000	-0.5364717
17998.2020000	22.4467450
17845.1630000	-35.9605970
17707.8710000	71.1762730
17686.0440000	-44.1263570
17656.9790000	-2.0706143
17472.1360000	-52.2165770
17466.7150000	52.6314610
17385.9890000	-9.7880897
17290.2830000	-66.5035000
17133.4490000	-36.9493600
17074.1230000	-52.0817440
17092.9510000	80.9107380
16888.8630000	-25.3132270
16897.3850000	-72.3131520
16739.3230000	-8.3716231
16756.7810000	-36.3146170
16690.2960000	-32.1676620
16515.7990000	36.2891100
16491.1290000	20.6673500
16336.7650000	28.5671460
16283.5730000	45.0551770
16285.6400000	-47.3573870
16167.3050000	31.2951950
16072.0050000	49.7741810
15952.9590000	12.7055790
16035.0440000	48.0854520
15820.2530000	-18.8839550
15822.3870000	-15.0446570
15820.5450000	66.2668830
15647.9400000	0.9981178
15523.2500000	9.0988372
15463.3400000	-47.9639350
15369.9090000	65.0626160
15399.1010000	39.1482010
15313.3860000	-60.0336190
15242.3510000	43.9599950
15214.9800000	-23.5958910
15129.5450000	50.0184000
15035.6620000	15.5571000
14859.3230000	-30.0777800
14858.3450000	-55.0070010
14841.8750000	42.5811960
14725.0580000	36.6273230
14632.9540000	-40.5357320
14521.8120000	57.1823080
14530.0000000	32.7274420
14439.4730000	-12.8763440
14426.1840000	44.2597830
14351.1550000	26.7961880
14213.6870000	35.9285890
14167.4800000	-83.0228090
14185.0480000	-62.0705950
13984.7540000	6.0637405
13985.2530000	-46.6324170
13989.7860000	-58.4624170
13882.4730000	-39.1682530
13856.3680000	24.7096300
13812.0950000	-9.6211293
13734.3660000	-61.2640690
13674.8510000	33.5442100
13553.0320000	-50.6623440
13516.0660000	8.9374692
13355.4620000	65.5622890
13298.0320000	-19.7346270
13244.9120000	26.1597510
13188.6510000	62.6560090
13234.5130000	-24.1099360
13075.0730000	-30.9317660
13017.8430000	60.0919230
12976.6590000	54.5856140
12904.1300000	-52.3723870
12830.6310000	-9.2076516
12730.4900000	-65.8039620
12805.9270000	-23.5207510
12729.8040000	68.5722680
12696.7570000	73.7011390
12635.1660000	-38.4382560
12525.1430000	12.2160430
12511.9120000	31.4796600
12360.4590000	0.9705819
12252.8690000	-78.9185260
12258.7570000	-23.9450850
12281.8580000	82.2583850
12153.1140000	-58.5324010
12138.3940000	-69.8291810
12057.2240000	-3.2538514
12048.4190000	62.9448010
11999.7480000	-76.4502470
11916.7490000	-1.8414193
11767.8430000	-70.0144240
11810.7350000	-71.3054900
11750.3930000	-4.2700499
11706.1970000	63.6070970
11617.8650000	35.1910020
11494.0160000	-23.7934670
11529.7000000	80.5887250
11482.4510000	16.4301180
11413.8460000	12.0918630
11372.0280000	-57.8419840
11297.1250000	12.4057840
11151.2190000	-84.6960160
11175.8920000	-72.4477150
11112.1030000	69.4185390
11023.3790000	-39.9414910
10986.5330000	-28.9325770
10949.2160000	-5.7108483
10944.3700000	-44.4972670
10793.6590000	74.1678310
10768.4090000	36.7477860
10814.8140000	43.3825600
10719.8240000	-42.4034230
10656.0190000	-15.1120890
10543.5220000	16.0073310
10533.1180000	60.2638340
10449.7020000	36.1109390
10463.9440000	-62.6096220
10408.4870000	-41.9892890
10381.5740000	19.9113750
10270.3850000	82.3269910
10297.6870000	-66.5732800
10236.6320000	0.5625124
10113.9080000	-64.2299540
10050.2800000	70.1605600
10104.7360000	-47.1819880
10009.1540000	-3.5259008
10045.7680000	-27.2489530
9856.3678000	21.9578610
9946.9923000	-18.7304550
9808.0158000	3.8556060
9824.7422000	5.1857388
9797.8545000	70.9141830
9638.3462000	-32.4436950
9724.4851000	-54.9609300
9546.6838000	-20.3280670
9554.4473000	-85.5540830
9449.3083000	-8.0515032
9413.0315000	66.2068430
9477.7198000	-6.1771032
9435.4296000	-48.0366970
9340.1362000	-59.0346890
9314.5718000	45.6237890
9156.6687000	-33.0577050
9236.5742000	-68.8731620
9103.9243000	-6.7556681
9126.2663000	24.8366760
9138.2294000	-55.2216080
9030.8339000	-13.4164090
9039.8271000	-47.3644880
8904.7307000	73.8281710
8836.3930000	56.8168340
8855.4364000	-50.1456170
8781.1682000	-33.5495990
8829.3148000	27.7323530
8748.7580000	34.3803160
8724.2453000	-62.7828500
8684.8760000	-58.8578290
8665.9892000	-49.4153290
8535.0404000	-34.4968110
8454.0101000	-67.3502630
8465.1907000	77.9268040
8459.7591000	0.5539956
8457.7367000	-63.3241430
8441.8400000	-1.9123119
8390.0025000	-8.4165751
8330.3321000	-33.1731360
8293.7623000	-35.3600520
8156.7592000	56.3589290
8130.0708000	21.2298910
8131.1111000	1.1757192
8179.3795000	43.8257620
8050.8686000	59.1138470
7966.9554000	60.4538860
7961.1107000	-77.9243880
7966.8937000	-67.6594960
7882.7651000	-22.0025700
7861.5898000	16.9720510
7904.0423000	-68.4540700
7762.7739000	-70.7071740
7752.9501000	-39.8269670
7733.7829000	52.9584580
7771.4910000	80.1959850
7614.1530000	-81.5292600
7552.2287000	66.4603310
7575.5503000	69.7135460
7604.6854000	82.8672630
7522.8105000	-32.7355470
7557.9505000	74.7295040
7510.1267000	38.7943340
7351.4918000	61.3685340
7455.4267000	-53.7872570
7414.8626000	62.3578760
7286.8180000	40.6419370
7348.8250000	-68.3347080
7160.1231000	-20.1225580
7215.2473000	-16.3673080
7195.6297000	-34.4714310
7164.2388000	28.1926850
7064.4965000	-27.4283200
7005.4471000	-61.7466510
6952.2183000	-34.2623800
7001.2304000	78.2131420
6965.4922000	22.4611240
6992.8599000	-11.0109400
6861.0189000	71.7918830
6923.6958000	5.4427203
6797.8038000	17.2922500
6876.6385000	-17.8510760
6692.5870000	7.4548986
6726.5757000	-25.7389780
6772.3517000	63.3990230
6699.6665000	32.6245230
6632.9049000	-26.4671410
6611.6892000	-12.7546550
6662.8332000	-21.9773700
6482.7970000	79.2509840
6496.7124000	-81.7951120
6530.7331000	32.1177990
6492.3842000	-84.5838690
6480.9317000	65.6876270
6482.8524000	26.5030060
6366.5375000	-33.7922290
6374.3966000	-77.0249390
6264.5733000	54.2303980
6326.3792000	0.4004484
6191.1033000	-23.3588060
6201.5637000	80.7179020
6183.7308000	25.6567140
6241.5987000	-57.8759970
6131.2657000	52.7885080
6080.0087000	49.1521560
6041.0584000	82.7780550
6082.2814000	-61.2331040
6023.1665000	61.0886350
5924.8207000	10.4419900
6019.1544000	-65.0446280
5912.4286000	-33.5692990
5951.0902000	-30.8265540
5916.9157000	41.1105980
5771.0974000	17.0595270
5800.4995000	-27.7792400
5845.1680000	-3.1261403
5700.6869000	-2.1686553
5749.9114000	-34.2961800
5661.8095000	25.5120120
5716.9262000	-71.4051290
5703.7686000	-24.6489270
5673.2229000	32.1663220
5553.9627000	-27.4404010
5525.8863000	-47.3523790
5577.4076000	-49.5421920
5514.4869000	-2.1690350
5494.1214000	54.9009240
5411.9202000	53.4724070
5427.3365000	71.4980030
5484.7668000	-54.9708290
5415.8632000	21.9521540
5416.7458000	-49.4449540
5296.2114000	41.1392680
5251.7231000	-35.1446570
5272.5192000	-82.1975540
5214.7790000	13.1668700
5200.0437000	36.6184850
5213.4361000	-20.6992220
5143.9757000	-32.0857110
5131.5278000	-6.3859459
5205.4556000	71.7832850
5169.8314000	26.6802090
5032.9932000	3.2930488
5001.5722000	-81.0311750
5044.9398000	54.4721030
4978.0065000	-27.0021820
4956.5789000	50.6007770
4959.8692000	32.3713000
5023.7530000	-27.3624310
4869.2758000	-80.8595850
4885.8399000	41.5385220
4871.1681000	29.5340530
4936.3425000	-85.5792790
4774.7792000	75.3354540
4768.3958000	-56.1043530
4715.1563000	55.5673470
4733.0721000	-18.5530780
4787.0131000	42.7704100
4809.7122000	-58.4255120
4664.0776000	-27.4721510
4608.9447000	80.5746900
4694.2071000	-24.5661390
4558.7606000	-69.1944490
4554.8326000	-65.1141390
4583.7347000	-28.5861680
4660.3978000	40.5865560
4534.3422000	-49.5138730
4540.3090000	-41.5200810
4514.0431000	-57.0005630
4483.7212000	85.2810810
4432.7019000	78.0210430
4435.9157000	-66.3209450
4515.5079000	13.2961370
4409.9227000	-26.8063380
4354.6934000	69.9381260
4319.3238000	12.6889760
4430.1524000	-17.5143720
4340.3998000	-81.2034460
4349.0047000	24.2862340
4282.5443000	10.7133780
4295.0034000	-13.6860490
4239.5916000	82.4914030
4303.7548000	4.3984506
4173.3152000	72.2438820
4187.9138000	-34.1477110
4085.2005000	65.4921040
4144.8991000	45.9976150
4092.3830000	30.2974070
4041.1096000	-66.3461910
4138.4383000	44.6623770
4102.9854000	52.2997820
4093.4218000	-71.2068260
4033.4087000	-7.5537576
4031.6817000	-55.5640170
3971.7620000	81.1665340
4048.6700000	11.2350070
3918.6206000	78.1133000
3928.3623000	-65.8946000
3850.6128000	-46.5249690
3953.3302000	12.3831510
3840.7979000	-53.1790080
3817.5981000	-81.2458790
3793.6007000	-40.4001140
3840.2279000	-51.2990300
3732.3163000	33.8671510
3842.5639000	82.1018980
3760.9036000	54.5174240
3800.7644000	83.1429010
3690.7665000	-30.7279050
3643.5684000	47.0122620
3749.3999000	-17.2756900
3638.3131000	10.5998650
3710.8989000	61.7625720
3682.7194000	-44.8691150
3549.8197000	47.6608380
3563.7553000	-75.8746030
3518.9710000	79.6527230
3653.8680000	64.0518350
3481.5011000	45.4710070
3508.3634000	-21.8134540
3511.9241000	-24.1448000
3496.1795000	81.8805180
3496.2219000	3.5124273
3514.2446000	42.9263980
3411.7789000	50.8272000
3469.0555000	-67.7695140
3442.8251000	24.9758020
3427.4460000	-2.5759752
3340.1855000	-47.1590000
3395.5830000	82.7897230
3343.5752000	16.6812760
3307.4287000	1.5639052
3357.6949000	-17.5635770
3310.0833000	39.8625950
3389.4107000	-8.2392786
3286.4634000	55.1011520
3249.9835000	-34.8946620
3301.5181000	29.2032000
3164.6852000	-39.4062670
3220.0415000	75.8868380
3218.5057000	85.2886120
3142.8817000	70.9832530
3198.0823000	65.4294060
3114.7908000	46.3873060
3081.9618000	-14.3191860
3084.3177000	-8.1713943
3181.4581000	-0.5604079
3135.6264000	46.6436500
3049.1442000	68.0421040
3081.5787000	85.0153710
3023.5895000	-23.7226730
3034.4201000	71.8704160
3093.7246000	81.0336270
3102.9320000	-64.8577640
2939.1363000	40.6299060
2985.2916000	-44.2408770
3041.0222000	-34.8190960
3015.8327000	61.3823110
2997.5718000	-21.3469340
2913.2933000	-2.2328548
2894.1037000	54.2017910
2977.6522000	-31.4440670
2927.3169000	10.3549240
2901.5617000	-76.3225690
2896.1665000	52.0415620
2855.7839000	-11.5764280
2799.6023000	-37.6535110
2842.0862000	-40.5270390
2898.2214000	52.4211860
2795.2651000	83.8195640
2839.8351000	1.5319097
2839.0192000	-69.1976680
2766.2323000	-6.3542498
2787.6257000	18.0815990
2720.8464000	4.8696665
2772.2255000	-73.9607290
2675.9686000	73.5143580
2625.6795000	69.3981310
2706.9389000	-52.0608840
2647.1048000	3.1836005
2604.2997000	-29.5368030
2730.0704000	-36.5077910
2609.2751000	10.4077900
2674.2323000	17.0417900
2636.0068000	-53.9776480
2539.5589000	-80.6188890
2616.3827000	11.6524030
2503.1652000	79.3148510
2519.3943000	21.7167710
2501.9651000	-32.3673140
2617.8727000	72.4609490
2540.2313000	67.0749430
2457.2699000	37.0415470
2511.5414000	-81.1227720
2505.7864000	-39.3145390
2562.6890000	-68.2095520
2485.7678000	62.5788530
2400.3120000	-50.0571060
2394.3171000	-56.7547790
2444.3878000	43.8826730
2374.4310000	-68.8758220
2365.4415000	-82.8388440
2385.3052000	14.3123490
2398.1214000	-36.0116530
2366.8108000	-69.3100970
2290.6669000	-10.0791720
2339.1421000	17.8932960
2262.2299000	-69.2468670
2370.4270000	-40.0119900
2306.0104000	-73.9904700
2285.6736000	-65.6367970
2305.0690000	21.8544860
2208.5170000	-81.6138710
2240.7063000	-22.0178260
2239.1459000	-83.5860810
2208.7204000	35.4532040
2193.1460000	19.5218170
2314.8787000	83.8189980
2274.7345000	-45.2671490
2215.7890000	41.5823520
2149.5432000	2.4360094
2114.8228000	-49.2414410
2238.2854000	-75.0789530
2209.9126000	70.7024590
2145.8618000	-81.2705520
2153.5664000	-55.1966100
2123.4802000	-79.5333600
2143.7654000	40.2149580
2123.2191000	-10.7719670
2153.1808000	54.2117950
2187.1802000	-21.0937160
2114.8748000	-84.9170970
2142.2893000	52.9463800
2073.4652000	29.6876600
2129.2474000	0.5169830
2001.8642000	18.2361380
2129.7499000	-61.3984800
2035.6177000	21.7732200
2071.2620000	44.6534720
1996.1286000	75.1319300
1966.1293000	64.5010590
1935.1635000	-17.8404400
2015.6936000	-24.2903960
1965.5601000	-81.3406460
1894.9468000	42.9893130
1875.2050000	-50.7408780
2029.0606000	75.4472600
1917.8665000	42.2284070
1899.1055000	-11.1468190
1962.0229000	-58.6553090
1982.0950000	-50.2914940
1869.3022000	83.6689190
1957.4522000	22.8075340
1869.1077000	-79.6068290
1963.3461000	74.6485090
1907.7315000	-63.9459050
1871.8440000	-44.9917930
1856.6173000	41.9230530
1785.3060000	49.9740520
1750.8918000	39.0090250
1751.4583000	-68.2149980
1800.5453000	1.9999512
1893.5902000	10.1543150
1745.2516000	3.4328366
1807.8357000	24.1308850
1767.8005000	0.9325679
1858.4035000	52.1435920
1735.6114000	40.7670510
1695.2554000	-56.8230070
1760.8415000	78.4920580
1779.3165000	76.6364580
1709.1550000	33.0887780
1676.9559000	22.1428020
1742.8944000	0.7796603
1769.0886000	-67.0671200
1694.2911000	41.7915410
1724.4459000	10.6357590
1639.1092000	16.0435970
1594.2922000	14.7371810
1611.7467000	-51.4155560
1605.8161000	21.0287460
1737.1532000	33.7594110
1680.8253000	-34.7816210
1702.4835000	81.1093580
1704.4899000	23.5929790
1646.5186000	-46.2234970
1559.0009000	-33.6917740
1595.2188000	36.4026890
1523.9928000	-67.5482350
1611.4188000	-65.7715800
1620.5983000	-21.1393390
1661.2613000	33.7446730
1543.5991000	-37.9892870
1610.6021000	31.5380030
1481.9851000	-84.4746740
1482.7555000	-26.6497510
1536.7259000	-12.6532490
1457.0203000	50.9092270
1467.4979000	49.2788930
1478.4677000	10.1112020
1544.7303000	23.2688810
1564.3128000	-44.1184480
1536.6682000	-44.7935560
1418.0886000	-7.3476173
1493.4869000	-32.0661540
1394.4728000	68.0609150
1430.9162000	-21.3013860
1431.3566000	-70.3285720
1418.7642000	-77.0752470
1434.5687000	83.8793160
1472.5567000	-51.4196770
1513.6359000	53.1811450
1381.6496000	36.6811880
1356.6085000	84.2848450
1458.9528000	-31.9584680
1338.6848000	-23.2488520
1387.4811000	37.5198600
1481.4662000	34.8047660
1394.3824000	13.0850330
1428.5325000	-39.9361790
1414.1432000	-67.4737410
1348.7435000	-53.3901690
1373.5503000	-1.9759521
1319.1872000	19.6207290
1315.7628000	-73.6406010
1387.8249000	-6.6765297
1289.0807000	74.9139180
1350.3341000	29.3975760
1341.6493000	-79.5050190
1307.4137000	83.6305440
1389.5404000	-29.2349580
1272.9289000	58.5187200
1250.4181000	-73.6011520
1248.4801000	78.5372450
1350.0723000	32.5087620
1302.6548000	-61.3274480
1267.0878000	72.9197470
1348.6151000	-44.6749280
1279.5422000	7.9264924
1280.5448000	-22.7821980
1219.4289000	-29.0503600
1308.4690000	22.7865200
1232.7804000	80.5598690
1247.9665000	-12.0319220
1308.5855000	2.5723085
1238.7653000	31.0027300
1218.4148000	-10.4888490
1236.7785000	-82.9663210
1161.4670000	35.4762080
1215.8264000	62.1127490
1237.6941000	8.9926955
1195.7627000	-80.8737600
1207.2291000	-36.1436370
1204.7722000	25.9884280
1121.1374000	-26.0274660
1092.3310000	60.4576830
1240.7095000	-53.7662300
1222.3869000	-80.3336600
1168.6107000	50.5074500
1194.2091000	35.4147560
1068.2122000	-19.4653480
1138.4155000	-75.0485170
1044.7866000	-38.9116070
1164.7499000	30.2693560
1158.2243000	-76.5849660
1098.2404000	-6.7506929
1166.4241000	33.3883900
1051.9839000	-12.8569620
1086.2784000	-17.0779350
1142.2607000	-10.7693970
1102.1731000	13.0624060
1132.0884000	64.7319040
1143.8283000	59.2944480
998.8142100	63.1908740
1101.3476000	72.9731470
1064.7174000	49.8996860
1105.8219000	-62.9593910
1021.0586000	47.6298840
1084.7822000	-6.4244146
1014.1336000	56.0224450
1086.7078000	-27.3607550
1036.6421000	-70.7777970
1069.9738000	66.9878910
1044.0829000	-66.1406570
1021.6533000	-78.4285610
1081.7547000	77.2776870
1006.2822000	34.3874510
1024.1709000	-77.0099090
936.6357500	-66.0958690
991.2690200	46.8369370
990.7680100	-44.2519630
906.3846300	5.4655398
905.3337700	-49.4784150
986.6063900	52.2556730
1036.3907000	27.9656630
1014.2103000	25.6465270
912.1250400	-42.8323810
903.1125200	4.9282863
896.4688200	-4.9497447
937.0046400	71.1444790
901.6957300	-84.4054200
890.5617600	32.3289900
964.8454700	-68.5089840
881.8663200	32.8829100
905.2504600	-32.7709720
941.0851800	-77.9549050
852.8028800	54.6823520
897.7213400	-52.1684460
935.6411800	-65.0499770
838.9510300	71.5657910
938.2588500	-19.2963820
960.0673600	-75.5475070
807.7355100	-78.6710400
887.2219000	43.5841080
855.9577500	-30.4468240
878.3902500	34.0245150
858.4670600	69.8790310
835.7991900	-62.3123400
854.0515100	19.1344960
796.5105900	74.2548470
877.0709500	-11.3210560
846.1824800	-35.4065860
926.9740500	-3.6526858
928.5539900	-30.1563450
779.4503200	-3.2385274
803.1312000	-66.2346440
782.8497300	-13.8031000
883.1456600	8.9641985
811.2022500	-5.9007769
767.0383000	43.3586160
823.8087700	-8.1760882
759.3938900	63.6972710
730.7626700	68.1201400
879.7359400	-2.1387024
844.3530400	31.2612760
726.4427600	49.9707200
801.7118300	10.0458010
756.6210200	-70.2760130
852.1012300	-69.6320610
722.2722500	-29.4860760
733.4678200	-1.6305036
754.1702500	-60.8185220
705.4683900	37.6130420
720.4024500	10.9299170
813.6905900	-40.4875840
713.6703800	51.1093260
775.5793300	-45.9155380
704.9609500	-57.0000770
688.1741800	50.2625750
772.8920500	-40.3270970
795.9223800	3.3736511
786.5615400	69.2979330
683.5205300	58.4834880
700.1444200	47.7616450
676.4271700	-59.8105030
661.7423000	7.4024008
746.6611200	29.6639140
661.9674600	80.1005470
690.1293500	-48.9359250
779.1969900	58.4293120
770.8884100	21.7550110
691.9499400	22.3668820
726.2051200	24.4199840
752.4013700	21.2105830
735.9903300	73.2873500
760.7101800	-53.4849930
658.9424600	-47.1895540
712.3045700	37.8796570
708.3124500	-61.6788590
723.2754700	-38.2683740
660.5452600	2.8014237
717.7806200	66.8078220
729.9299000	-70.6764790
746.4428700	10.0221610
742.4680100	-54.6471040
619.4531100	-17.7199210
612.9721100	-75.9897610
581.2602600	-6.5781735
693.1919600	-20.9469260
694.4698800	-80.6658180
692.1129000	39.8817640
654.6485100	-21.3044170
627.7498200	73.2230930
715.7080300	-13.8470600
639.6636700	-9.5020357
589.3532000	-40.6943890
704.1110400	-75.5267120
579.1208100	-72.0462070
587.5616400	41.0487740
703.4115300	-69.2478810
548.1810900	-0.8478762
689.8564400	83.3883440
612.6243900	18.2963420
659.7939500	-28.8706660
575.7578900	64.1737560
542.8512600	21.6488790
544.0657800	5.6598945
647.6847700	8.0482744
534.4235700	-73.8397330
593.2615300	-83.9324610
547.8275600	8.7953446
509.1421800	6.7308020
656.3652200	-58.3523010
583.5526100	-58.8906550
592.5292200	54.7046660
576.8919000	14.9360070
584.2666700	10.2458260
638.2365500	-25.0037030
579.1618500	48.1702560
507.7820800	72.7519130
622.4419300	79.1317350
557.2205000	67.9066360
552.5438200	-77.0231030
631.2676600	-23.7232740
636.4656300	-18.1385730
476.6734600	22.2496480
471.2415400	-3.4651608
493.6436100	-27.3065080
555.2222800	-25.1445320
454.3789200	-78.8738000
463.2754100	-20.4696820
548.9143600	-69.9736170
579.4968000	70.7141520
556.2101000	-32.1935830
497.6082400	-75.7470600
551.0160000	7.9453020
544.4418300	51.6215840
515.5281500	-60.0182690
563.9942600	26.5943020
512.3393900	45.4702920
535.3005300	62.7099530
530.0968500	-73.0710860
464.8362000	-56.9398410
534.9925600	-27.0868810
512.0005700	-46.1455490
437.0211500	-42.4775990
579.1194400	-50.2315130
574.3955500	26.4241100
504.3643400	-15.5291450
456.0554600	62.2809010
553.9619400	23.2117360
571.0104200	69.5930430
455.1612500	-57.4700380
484.0584600	-50.4307440
451.9241600	32.6792690
437.5835000	43.8328290
416.0268200	-21.0927180
521.4463600	27.1441500
402.1403400	-46.9561840
536.8674800	-84.1321790
393.9273100	73.9280560
405.5517500	-84.5146840
385.4093600	7.1121049
402.9323500	39.5645910
474.7412000	-85.4370310
441.2166900	-34.2942900
402.6125200	-53.5808200
400.6385700	33.7674790
454.7835800	-11.7342700
486.0935100	-2.7652082
379.7351700	-9.7486795
408.5174700	31.6734530
415.1657000	22.1534410
454.7994500	74.0146320
440.1380600	55.8503910
459.7326700	-54.6972820
400.6500800	-31.7001130
508.8622300	32.2751560
434.6852500	-71.3944930
464.3542100	48.9810270
461.7118200	68.1010110
416.3553700	16.6407140
435.3997700	47.5766300
353.3794800	53.2861740
371.5357300	56.6183640
404.9780000	-80.9159520
473.7153300	-47.3832530
399.1750900	7.1558040
366.5834000	-34.0547450
458.7582400	-22.9334940
380.4985800	15.5852570
436.0630800	20.1709010
443.0228100	44.1618270
342.6706300	-48.9696230
380.4890700	3.5945514
367.9118800	84.4742710
462.4231600	49.8547420
426.5795600	61.3871750
365.0936800	35.1567520
302.3771600	-72.3610030
343.4233000	47.0477870
396.6878100	-74.5687250
392.9856400	-59.9410240
296.8591600	-17.7694290
339.4624100	84.0050700
361.0093200	-69.1774680
336.8794200	-53.7854150
331.0102300	46.4769940
369.2824900	-22.5606930
371.2228200	-25.7841790
432.5930300	-18.5620660
331.3427300	-23.9786120
406.4587000	56.6002520
381.5571500	69.5254960
386.1787500	-46.1838380
316.2359800	-47.2314330
398.9310600	-14.5480220
332.3589500	-40.0749920
339.1698700	10.2126620
291.3367100	83.6704660
303.1914200	-40.6303890
272.6022200	54.8699020
289.3281100	-43.8443470
378.6704500	-63.4153930
295.1245000	1.6600997
295.3857500	6.3072177
267.8492400	-17.9125320
346.2011500	-12.0108390
308.8442100	18.3370390
310.8730700	-49.8834650
384.5615600	62.6326950
384.9517200	46.2511240
311.9728800	-77.2326990
392.0387400	41.7516670
284.3623200	-84.6449590
294.1494500	81.3724160
298.4801500	-61.3865390
251.6915200	-11.5608290
327.7755700	-61.1005880
278.3939600	-48.0893690
328.8410700	-1.9421884
328.2916200	74.5324600
284.3399200	-80.5191440
392.3116000	9.6623575
328.9512600	29.4253410
243.1690700	-17.8991480
299.4713200	55.2207700
374.5775300	35.7908800
335.5534000	-56.2098060
330.9013700	-55.2172920
267.0531300	56.5985410
240.6148200	-20.5374820
357.5192400	45.2588790
321.5282100	-23.2477730
290.0863800	-31.7532390
298.9273400	62.4419370
256.7774400	57.9496300
210.5753800	-18.0826850
370.4768600	22.6846150
262.4812300	-74.5114690
335.9020500	-73.8675010
254.9548700	-20.1126850
279.9950500	-13.0944130
335.0825600	-5.3367276
370.4375700	25.0114680
226.8743200	-55.2481700
344.1024700	-52.8304440
296.6015600	75.5777630
241.1639900	-57.8950660
360.7838600	-27.1625650
206.3341800	-35.1178590
318.3898300	35.6470890
203.1175100	-79.7964990
206.1100300	66.4800480
312.1072200	6.1377494
188.1632900	-64.6898100
208.3169600	77.5928020
189.2500400	29.3688600
239.1805100	-9.1852643
310.0105000	53.6842820
227.3841700	25.6909770
301.4954700	71.9147020
255.5421200	-40.3056480
223.9477000	77.7849150
194.0194700	46.9080200
236.8284900	51.4940760
253.4842500	14.4113370
303.5291100	35.4209100
194.1616200	26.1934860
236.4943900	14.1531090
202.5011700	22.7229040
267.7519100	83.5190470
319.3382100	31.0576800
181.7192000	47.6994980
329.8122800	16.2108860
305.7478800	44.9666360
178.5668800	-72.3937540
303.8479700	74.6157380
284.9920100	-53.4049430
225.6658500	-18.8942300
310.4105800	-77.6646980
186.6278100	-71.2308350
301.0785300	75.7932860
209.4413900	1.6907647
225.6717200	63.3900080
157.5421200	8.4993194
217.7103000	-41.4217350
290.9958400	5.1348762
225.2184700	-6.6662471
212.7024900	-31.1253940
295.1250800	11.1260690
235.4165000	30.9756600
235.5517600	51.7305430
228.7419900	-48.3470470
287.3841200	-7.9597569
218.0831500	50.7189170
214.3381200	0.5376345
212.4200700	70.5646670
265.1029600	-83.8647250
214.2439500	-18.8773970
182.4232700	82.4843830
154.4374100	-82.3906240
191.8664500	-49.1206220
137.5896000	50.6128030
258.8411600	7.2372623
201.0295200	-41.0048830
156.9563600	-64.1234800
184.6025700	56.4030190
144.5356800	-23.4092440
137.4116500	-42.5543260
157.0531600	-34.1747310
213.6068100	-53.9675860
124.4357600	-43.6231620
231.8980500	-40.8275960
231.1540800	-80.5196230
142.1101100	-19.7372170
199.6311600	68.2137340
210.2916300	-68.9179690
250.6456700	76.8871640
199.9718600	-59.4839830
251.1688900	-74.6827280
113.8555200	9.3246983
137.2021600	-28.5279970
214.3959000	47.3039140
263.8239300	61.7370880
252.5799300	61.8945810
186.0938300	49.9806770
138.3859500	42.5812730
201.9431000	33.5322090
114.5853000	-47.6469820
146.1197100	28.7010820
188.6634400	29.2184530
134.4452400	64.7848070
148.1097800	-47.0946940
185.3485700	50.0981080
221.5883600	51.5276930
109.5697100	15.2622620
101.9407900	19.0283510
268.1851800	40.5648980
197.2442200	-9.3157884
235.0932400	-61.8982380
118.6013900	-47.9514240
142.6408200	33.9532310
211.2660800	11.1332530
140.7199300	-80.0960670
231.2047400	10.6498610
116.6010600	40.9452600
240.0833400	-64.1978240
126.9015900	43.7870110
232.4815900	-19.1073600
98.3325160	77.1588230
173.2550700	-66.1233400
170.9068200	-79.1084060
122.1860100	56.8355960
84.5546260	-7.7832606
100.7833200	67.3779160
175.9826200	-60.6415090
105.5245700	-6.0965563
152.1777100	39.6271610
146.3533000	78.4441910
162.9927900	-56.8396810
111.2803300	-68.2439600
224.5426800	80.6802210
201.4984600	9.3671336
226.0470400	22.8033200
92.5062750	6.3115294
81.2636590	-16.8380480
79.9597810	-41.2559670
209.0538700	-37.0313950
212.5082200	16.0133310
127.4536000	58.1623020
174.8846900	-58.8015100
230.1184400	65.5190370
211.2586300	52.1063200
118.8348800	-65.4311030
181.1009700	21.2024320
189.0014000	-6.7369264
83.4008170	24.2780000
228.4173400	-62.0334500
186.1040700	44.3160280
96.7101530	2.4015720
195.6233900	-43.0607940
129.6020300	13.5056050
195.3245700	-78.6522040
71.2442680	19.3878550
83.9354930	-58.2152010
66.9271940	29.0495230
189.1143100	-40.1645850
168.6511300	58.2497190
222.3305800	-35.0837400
61.9096780	-8.5907573
105.6372900	-79.9762250
156.9766300	-78.6707850
92.0144210	9.2215409
214.6338500	15.4859760
105.9468500	51.2300940
137.2923300	62.5070740
156.0217600	-30.6923290
172.0559500	-62.3989940
58.2356340	19.5569800
76.7160970	21.6256380
106.9351300	62.8106880
174.0746200	61.4227770
125.7524400	73.4588030
69.4874000	-7.4204535
115.9962400	-14.8278550
156.8847300	41.4352520
168.7052400	41.3083080
163.5922700	39.5544730
160.1381200	-66.5988080
129.3509400	12.2791960
212.3999600	-65.3282730
78.3390480	49.1532560
184.9312200	-66.7061980
158.2152800	25.3506070
107.1137800	60.9725760
171.7476400	-0.0857401
169.8281100	52.0900140
163.9119000	-11.0347700
206.8786200	-78.1702640
137.3124100	19.4118610
163.6644100	-5.5081794
54.6851840	12.6351060
73.5289080	-4.4529818
102.0150600	-26.9943810
206.0828700	-43.8525170
95.2147890	24.7758170
98.9074810	30.8813010
189.3853300	-9.1286414
104.9602600	-50.4103630
39.1348930	77.5582610
175.4849300	26.6744120
161.6964100	76.9110910
156.4310000	-3.7533064
145.3895000	-75.1651540
105.8147800	4.3931649
163.7094700	15.7577360
106.9148300	59.8860790
156.3714800	1.0450898
190.2138500	66.3565380
75.2812910	-44.0782030
97.7757860	78.2972660
190.0172800	22.2001960
54.1863550	-50.8872600
62.3499280	-2.2928311
115.6711000	-44.2499590
39.2487300	22.2095420
132.8408200	23.4422940
80.8736930	82.8837810
84.0829960	7.0818088
65.9849090	-66.1843950
139.7310500	-46.7754920
103.6629600	-43.0768360
72.6328820	-66.0681350
73.3059780	77.8751710
50.9977430	-84.0579960
188.1837900	-34.3460350
103.7776700	60.4147060
89.8075550	63.3980290
151.3067700	85.2122870
67.5539880	-58.4842410
78.6808100	14.0407770
158.8190000	65.3651930
137.1680800	-8.1459467
96.7945500	13.8264040
76.2409070	-30.8591660
35.3987020	-41.8893640
18.2236990	-15.2011540
168.5366600	-19.1622910
111.5716100	-38.5124110
155.1852000	9.7744520
72.2102610	76.6609460
180.9121900	-34.6440050
78.4677090	-67.6912810
98.2110260	41.7013670
120.5420900	26.8617090
120.5485900	-62.8407090
91.6526720	-84.8458990
155.3190000	59.4034090
36.4769520	-34.0205770
63.7098860	14.0022600
126.1467800	56.3745970
162.0934100	-64.5545950
82.3681840	19.0131690
103.9917900	4.1285371
53.6180660	82.1904050
83.7490790	64.2383280
138.0463300	58.7810670
60.7223260	65.7414820
172.0502600	-10.5360980
28.7785300	40.4940060
65.1479200	-56.6773690
38.5536650	-31.8081070
140.5632600	-43.3397950
61.3486220	65.7231450
75.9281710	0.0159719
65.2703710	31.8502030
83.7310010	-49.4801520
46.8177630	31.5836200
35.0857380	-59.7488810
58.9288600	-15.8952610
55.7049740	-7.5807375
-0.3585920	-24.2064110
26.8704850	-25.5032710
133.2803200	-13.9498080
165.7787400	-67.2078600
70.1230810	18.4673210
69.3965330	47.2678190
126.4903500	34.3209520
31.9719580	-23.6878920
121.2968400	24.4483320
54.9920020	-39.7202640
79.3913510	50.6982430
138.4875400	-0.4109127
25.0561600	-67.7841560
99.4797450	41.0601430
145.7639100	-83.9760200
156.0103900	-15.5623610
38.2316850	61.1080270
2.7461630	-51.2782070
151.8081000	26.5738520
123.1159000	-55.0449820
-5.5921884	33.4165920
72.2330830	77.2954810
10.7623150	-56.9041100
135.3258600	83.9991300
101.6833200	-27.2768160
2.3448470	-54.7730940
34.4122290	-51.6466150
44.7491830	-49.4969310
139.9599400	59.3176400
101.1373600	-59.7437210
2.5197014	32.6049150
81.9501860	-73.1564780
75.5718040	49.5640700
29.6513990	-27.4409460
112.2682800	21.1027910
128.8126400	27.8360370
126.4777200	-82.8905040
-11.7318870	19.1067680
93.8951710	-29.5778030
92.5796310	-26.4897220
36.6547990	27.9950170
120.9190500	80.8883480
149.7855500	60.7580930
36.1999450	31.0371660
61.3411640	72.3094480
94.0899660	18.0140730
37.3478350	-7.3719723
151.8563100	57.0284130
64.4545550	59.5046590
116.8999000	-76.6790060
72.1539590	-79.6476690
66.7330640	-83.2504380
55.3734340	-63.0782380
114.7832500	28.4434510
73.3986950	38.4971580
-16.7042720	-8.3998444
91.1433130	-51.5843050
-11.0005990	70.4213700
55.1667070	9.0150269
-12.3425200	-69.3204670
-5.5228917	-50.3634220
21.8504920	-6.5437697
130.6489600	-73.7078890
-5.9506139	-50.0755190
94.2769600	-67.8206940
-15.0138620	58.9331290
129.6639500	-61.7792470
-14.3635280	-5.8091919
31.7409510	-25.6657020
145.1711900	14.3019590
100.0900100	7.4153848
-19.3886880	-76.5509660
76.8468070	31.2578880
33.8262350	39.3997070
141.9704600	-8.0421673
25.4077940	-9.2454575
133.7092600	70.8356280
-5.9748242	58.1608130
112.7058800	46.9084160
40.1803510	65.6467860
68.8435540	54.4126650
27.4956620	72.3377390
88.6465550	9.8934336
112.2629800	-67.3712770
91.1021120	-46.3988200
132.9851600	-58.2835680
-4.2032038	43.4100150
28.1532570	-50.1323870
131.2475100	-77.7926860
119.4714800	-36.4504490
124.9821700	34.1329770
62.0358670	81.4464990
81.7262500	-43.8211150
-7.5087030	-76.8760750
-20.9367010	67.2560260
118.3401300	54.3041190
51.5264090	25.8075340
26.6901330	4.4445337
41.4468500	11.4384390
-16.1394210	-39.6295520
29.8583700	-20.6356740
136.3284800	-44.9416780
131.4153900	30.8429270
-0.0102319	79.0006610
88.5098490	-73.7073360
75.2211440	-30.7600570
55.7632550	-35.4104790
6.2148956	85.2576310
-26.6470030	-11.1600740
65.2904310	67.2730130
94.0316090	-85.2896370
89.3948930	-13.4989880
107.8745100	43.6374000
27.3263510	-5.4689116
77.7984670	12.4748690
-10.0278070	64.9701890
78.1498920	55.2211760
50.0728910	18.8529970
99.5316370	-60.3394790
14.9834420	3.9369529
45.7018720	-54.3936820
45.3226830	3.2319346
66.5661870	28.1884470
23.3705460	39.2190780
-15.3491710	-1.5329493
86.6105770	19.1779910
-22.1554440	74.2170290
111.7001200	19.4211600
-28.9358760	70.3913040
-38.7821520	-58.1352540
95.7914570	-15.2656500
81.5593830	65.7836950
-30.3309060	-42.0804430
68.6899140	15.6484800
77.4586640	51.5038210
117.5680600	-19.1063700
117.9106000	65.3485820
70.0593480	-20.2909650
6.2176403	-10.9885980
69.2621660	-68.8773020
-6.9992704	5.3509227
42.3614450	-80.4509040
-5.1768547	-40.4594960
1.4880555	49.3321890
112.5534000	17.6776450
34.2684060	17.4493900
44.5514020	-66.2937050
-0.1152382	84.3856410
22.8972860	-20.7293140
89.5573520	-6.9103956
120.0392600	11.5283750
67.8825220	20.4045460
97.5576790	-52.6622740
91.5184330	-1.1739886
15.4961300	-17.2473060
53.6194510	-42.4836010
76.8880260	66.1561270
59.8802670	-57.5939100
86.7298310	56.3459790
53.6808270	-17.1350280
12.0455290	44.5170570
-45.0020030	1.4962269
52.3149510	53.9498240
-2.0200999	38.4788010
60.6097780	32.2593530
17.3990880	-44.0367420
23.8862170	81.8633200
-0.7051331	30.8301130
-10.6063340	66.3708470
45.0045800	43.5347140
51.5032990	-40.1143800
95.6304280	-78.5062640
0.2065468	15.1829150
39.4585600	27.0050580
34.5540250	-73.5397270
115.7911500	46.3402590
18.0522090	35.4438050
82.4193000	-8.3153114
-4.9411493	-56.4756800
-17.6410730	4.4391243
114.2252600	-32.8772860
10.3744320	47.8838040
94.2565420	25.6609440
3.8338006	-1.7436974
-47.0122730	43.2792270
53.2663850	69.7737750
-9.6479251	-14.6367520
48.3803160	-39.0566650
5.3613166	-47.1501760
79.0173950	4.3256707
2.5849883	23.5515530
-50.3984390	-9.6579735
109.1964600	72.6863430
-41.5771560	29.5643930
69.9476970	-61.6436770
49.0371330	70.0791120
90.0557820	-22.6031130
89.7658710	23.0823890
30.1534540	19.9298790
39.6928240	-50.4401120
87.1515640	-25.3109540
18.8113280	71.8366450
93.2660190	-80.6638500
94.3338070	-13.8966700
-7.6554910	65.2715320
-46.9580550	26.7289390
91.3866080	84.2702200
-30.7195130	21.7692940
115.0399000	-41.3980920
75.9371370	-37.5885250
55.8723910	24.2980080
-10.0252960	-2.2818971
-35.4733710	-67.9744050
-52.7700450	-73.8299040
-33.2039650	-4.8039928
37.2883180	57.6532960
38.2579620	62.4343310
48.3814240	-3.0190771
56.7583940	-5.2968320
-53.5629690	-29.1681200
67.7733710	-2.1496078
-44.8511370	-45.8420380
73.9218320	46.8675870
79.9573610	84.4929550
46.2630150	-30.1360370
-26.3014060	13.8745810
-10.9973180	-83.7855660
25.0461970	-75.2604390
36.4665150	40.0289090
70.1158600	24.9837540
25.0523210	-64.3172330
-14.6830770	66.9565300
77.4793900	-81.0563080
81.4271090	42.4226050
88.7760520	-44.0615500
-28.3273400	28.0860760
-8.0359577	-34.0997340
8.8909417	-30.2447540
75.5777030	-16.1235500
101.4191500	73.8095570
-57.6792520	37.1884080
-48.6406200	33.2079590
-37.3514030	39.2861670
63.6116370	51.9708800
105.5211900	46.9630840
68.3785720	-2.2792970
108.3343900	40.7210330
88.7889100	74.2950320
56.7569600	40.0372260
77.4983390	-70.0339140
-44.8224670	-52.5695440
-53.4359860	19.1040680
-9.2644137	-41.8267510
-19.9933310	57.8194130
-9.9718416	-55.6774220
85.4281270	32.8258550
-7.6981283	-69.3902560
7.3418790	-80.6740060
49.4948880	-7.9071351
-28.2037960	43.3733740
35.1790370	-44.2006000
-52.8502040	-36.7835640
-19.2805080	-69.5388750
83.7842070	-3.0384665
-9.6455701	4.3929810
26.6998330	59.9781940
-30.4831150	54.0634540
-53.0403890	-6.7746179
89.7171760	27.7096870
23.1300840	15.7773540
85.6461730	-0.4357932
104.3252200	-47.9902160
57.1757660	51.3644880
-49.1624280	40.3333260
-39.9968230	75.3898920
-50.2177490	40.6978860
38.0327250	-56.8204020
-26.9274780	23.9541060
42.7129350	-33.1655810
29.0106020	73.6961210
-27.4915900	33.0091430
33.4546380	45.1320780
15.3707910	-27.2548120
74.9353250	42.5493940
90.4314280	-82.3388640
96.9127810	7.6840832
-57.1101230	-4.9341903
-26.2326690	-25.4145130
-48.0261370	-36.7789140
-35.2934750	33.1990900
36.3219400	47.2187900
69.1892220	-81.2148280
66.7800160	41.9977740
34.8924230	3.8201470
100.6746000	-20.2995540
-56.9100500	-29.7440970
81.2832950	65.0967500
68.4082180	-5.6728888
-53.9134750	-59.1074950
64.6625220	-62.8882270
77.5702010	64.3478050
92.4789630	74.9513630
-20.5908700	-85.0121490
-49.2426100	66.2121620
81.7626980	26.8835100
68.8682170	23.8857820
42.9707210	82.9869550
3.5561960	7.6671869
-34.3892820	-26.9167990
-28.0655670	78.0574750
-19.9240020	-61.2815790
51.1819070	-13.6191820
8.3383679	15.2148890
-10.3952500	-79.9154400
11.8400640	21.4585410
53.1279920	-73.3695380
57.4602730	-44.1787810
-42.7365360	-25.4588100
65.4335990	12.2632240
-4.0010559	5.2083485
53.7389910	46.5011480
39.2077800	-67.9400150
81.0226080	-70.7501300
-55.8824450	-36.7238030
61.4299270	75.1403000
35.8923470	-78.7086830
-46.4131420	29.5287890
87.5857150	-54.8908530
3.9357396	50.0388020
74.3840240	-15.5749840
-58.3972380	57.5552950
-9.9872837	75.1560470
66.5327770	21.3771780
44.1818840	-38.3061920
-50.9210350	-5.0942883
2.9959938	-42.8759750
27.4330890	2.2858440
8.9285346	-70.5371940
-0.5131784	-60.2693620
19.5377630	40.2972180
78.5589270	-1.4345368
-0.8554009	49.7726240
-31.0318620	60.0413970
-21.3208910	-55.6302390
95.5561050	-81.2357350
-1.2677689	-33.7313620
18.5283690	68.0264730
58.5461750	-1.4685646
98.5797990	58.0337810
83.2877940	79.5055920
12.6048130	-58.0406040
-49.4772640	-47.3360970
45.1124080	-82.8271840
-41.1112210	46.7334660
20.9686850	30.2649730
42.7749750	-31.0296150
-35.9163300	-81.7375570
51.6148990	29.4533170
38.2219250	37.6793310
4.5633469	80.6323190
86.1077860	-13.6345160
38.7635860	12.2583120
-61.3020760	79.1459770
2.3935200	-63.9254650
2.4206092	30.2637600
18.9615650	52.8477350
-58.1201580	-39.0249660
20.8362800	10.5946070
62.4041140	-47.4343230
54.0839440	-49.2108590
43.0095960	-31.8755460
-20.9598830	28.4242930
-65.1202060	19.4811020
32.7042710	-56.8629320
18.2926700	24.7323690
65.9566010	-54.7725070
20.1865520	30.9159450
83.5364230	-45.8095880
52.3472140	77.2385780
37.9077710	80.1349110
75.9527250	-53.7031380
99.0330390	-56.7138670
52.8304530	5.8417070
63.9456220	37.6104820
70.7593740	35.5419890
17.0903860	16.5323810
-49.3117250	-38.4184980
40.7877630	31.1024460
85.0653020	-60.1560240
-19.1173140	-37.0819470
58.6818080	-21.4760710
3.6426580	-16.1894480
-72.2168280	25.7641170
74.3046680	29.5796980
29.9425430	-46.9049330
86.0942560	60.8666630
-14.3510450	67.5911240
19.0792730	-34.6251540
42.9944090	-3.4930764
91.0534250	26.0122900
65.9285540	19.7857360
25.7293780	38.4344220
13.6697420	7.4363295
8.7869760	1.8281716
58.1361400	52.9176040
66.5896030	-21.8817740
78.6919730	26.4551380
94.3033720	10.1693360
89.1357970	-60.0566660
89.8624990	-56.5285440
2.6582640	-39.7323630
6.6448452	23.2291420
-11.7588900	-10.9465850
-47.6987860	52.9690810
-7.1305917	-47.6637870
61.3797270	47.7754340
-63.3545210	60.9713910
82.8742690	-19.6545090
91.1662190	-13.0145260
-40.5188140	70.4443730
87.7030980	-34.9995800
-66.6338870	9.6794224
48.6407680	84.7000190
-25.4922000	-18.1677510
87.2578160	-40.1766860
72.1797340	-7.3889520
-70.3241750	-13.7881330
6.7408887	60.2616830
44.0322120	83.1970970
-28.5349950	64.6237040
-34.7635870	-50.8233070
-3.2671253	-1.8964256
-26.1952370	-6.2288014
91.1659550	10.6830640
69.5811670	-13.4841550
-5.8051400	-49.6006310
87.8790070	47.3757610
6.2123020	34.8875760
-41.2719330	78.6864060
-74.6234840	-5.3480312
-66.5308160	-17.1063660
-25.9069140	73.5584490
39.3449650	3.7241409
71.7713310	-35.9580600
-0.6064860	15.6363320
72.1501840	54.3670790
21.8659770	60.4796220
-45.2814480	-1.9709078
70.8529380	32.9185060
47.3789910	-43.7450070
27.3585280	-61.8122660
-20.5617950	-63.7234770
78.4875370	-16.1231590
24.0829090	-72.7237940
-20.0597680	-75.8995410
58.0462160	75.4377890
64.6944570	-40.5472640
46.5863980	41.5036700
10.1256460	25.7451720
-9.7717304	-51.4363990
-62.2609460	-63.8993980
-33.9816110	-14.9547050
-52.6354330	12.2873900
72.5019490	73.6379880
-49.0071740	65.3096880
90.0112810	19.6371320
-33.4348260	-44.5046350
79.2862520	60.5788600
73.8930310	-7.8812289
8.8782011	-48.9532700
-67.9187390	-83.1233350
-18.0017880	2.2002297
-73.3909690	53.4976070
38.1169950	-22.2155590
-60.3434070	5.2196092
-47.1396350	-49.7622570
-5.1400635	54.5820030
30.9204080	70.4956470
-53.9862050	53.9765250
-4.4251280	-27.7330100
-47.9419690	65.3253800
-4.2547956	80.3333590
68.3497470	34.6561040
86.1431320	26.4697840
93.4990870	54.4747700
3.1785807	-73.7467270
-5.7057028	79.2202920
21.8408440	-58.1851780
-62.1997610	17.1209160
-8.5910283	-55.2156950
51.7804110	38.1639490
69.6887900	-12.9520200
-77.0971810	14.0106080
59.1024500	29.4675410
-8.6859001	-0.7176780
84.2947850	-41.3196400
-75.5382710	-12.9446690
77.6062070	-52.9336100
63.0456410	-3.1662382
62.0219370	-6.4064693
80.1914580	-35.3710930
-61.4471490	-70.0635940
88.9900670	-67.5918070
-75.0200250	-8.2183940
14.5702800	-40.8930980
38.2217880	-34.8320610
6.8606108	46.2823060
-22.1070720	-34.2287400
8.7293404	-65.9412820
-44.4500020	20.6809360
-50.1811800	78.2322370
60.0064860	-33.6129670
-56.3908550	-76.8278940
-5.2023059	-50.4023840
45.6839800	57.0349540
-43.2393740	-80.5984720
65.1323760	-28.2999300
-17.2515180	-15.5125290
62.7511540	72.0991340
-45.4540150	76.2620920
-33.2275840	82.5960080
10.8375830	-51.6021290
-49.3573510	58.7698830
16.8465790	40.8009020
21.6596600	-23.4667780
-5.9845429	48.3982860
-0.8541772	-39.1970800
-27.8201480	70.5205510
35.6682160	72.8055890
58.0273060	-54.8880200
-76.3582370	12.9708560
41.5789010	-39.8360450
46.1642090	-79.0422430
59.2524020	19.6258260
45.4202150	50.7036340
65.6471880	-45.7579980
0.6699176	-45.2868690
1.4042045	48.8592110
-73.3084130	-53.7328800
-76.6548200	84.0418320
23.1240450	71.6268620
-47.7276260	12.4424060
-72.5632820	-54.3321770
-23.0683850	43.9281870
3.4920090	-68.0635900
-11.3705410	-43.5499590
84.0535850	-83.3423610
-43.9909530	-8.3994595
-61.3098780	-22.6930890
-56.9106120	42.2087010
41.0422450	3.7306526
6.6463972	68.5462490
-21.9710970	21.6556990
11.2802100	82.3874800
-61.7183800	-81.3324120
-20.0897300	58.5214600
-28.7567710	-25.7832270
87.5217370	0.5755973
-14.5086450	1.9310178
72.9838540	54.0864560
30.9937180	40.3378960
-48.1311420	-55.9308730
35.3740380	-38.7766950
-27.8190120	-29.9502170
24.3415980	38.2991900
-50.6608890	13.4616620
-18.4290590	-17.4534640
6.3048474	-1.5516428
-24.2388020	33.4388580
-23.8489800	37.9341150
-77.6903220	75.0603820
-75.7499940	54.6037240
-13.2580380	23.0107110
14.7498630	2.3483808
29.3731520	-39.1415280
-25.4347200	28.6060380
82.2708120	-1.4411916
64.2932400	-80.1937700
-49.6134710	-14.8963090
-22.1315130	-13.8147160
-68.6836280	-16.3073040
-51.5770080	-10.1849520
-79.2091490	39.7158130
59.5073510	65.1640620
54.9986370	66.2421890
-29.5226490	-35.2187140
-58.4345710	48.4695690
-22.5857570	-36.4530770
28.7067770	72.7074160
-24.9991560	-71.5535170
-6.0594078	51.1475450
72.5280490	-0.8203418
6.4148327	65.2014200
-39.4413560	10.5250980
-42.9930390	2.3431625
-52.4317400	-53.7084680
1.2214401	49.5185060
-22.0144370	36.7024800
-32.5513900	-83.7836730
46.2956080	-54.4742950
-30.4376350	-39.5928940
-70.4371640	-29.7667630
-12.8952040	30.2306800
-67.8576800	-25.5839560
-18.8119450	-77.9180000
48.7261010	-30.6382160
31.7236090	83.6418740
60.9194880	-20.9230520
-51.7888480	-9.9413923
1.9308399	49.2512360
-11.1630910	21.6206320
31.6371530	15.6255420
-46.9398580	-57.2202190
-23.4480370	-0.4309213
-72.9818210	61.7650310
-64.9686840	37.4217290
-70.3763540	68.9408390
14.7411520	-47.6789380
27.9164950	-37.5503210
89.5996680	67.6765370
-9.5092922	-69.9223970
-68.2932770	-79.3933320
41.7105100	-14.9015720
-8.6839751	80.3415880
79.3516850	19.1383920
73.5448150	78.1665740
-36.3466880	-3.6852463
16.0555630	-80.6301140
27.8179770	44.6576310
-25.7010970	-57.3372480
-8.0006659	-48.8478570
-70.2929930	-59.5892750
-35.6739520	-1.5627252
-3.2633394	-71.4309950
68.1384410	-30.7929410
80.6388050	20.4819190
-54.9897600	63.8075060
-68.4719390	42.8627340
26.5957110	68.0752440
-57.7235330	13.4524560
-8.2159660	38.7369950
-10.2768700	44.9390830
67.5871710	-81.8276220
10.8492050	-29.6567010
-46.6217280	3.7045310
-17.6395510	-11.1199830
64.4963190	-51.1093180
-70.5664660	-65.4244600
-49.9645360	-57.5065330
-8.9025989	79.9525260
15.6503750	20.7810130
37.2221080	74.9891250
35.7088840	80.0342780
-35.9042720	3.4629087
-77.5453050	53.6731420
-18.0798620	-82.9306950
-1.3215924	-2.3495536
0.2464852	15.8370440
-65.7286070	39.4985430
26.3236460	-66.1362790
57.2889990	38.8319450
47.3005640	-73.3026800
53.5797640	-73.3277260
20.4682670	16.2025900
42.9072330	4.5079926
87.5933420	-2.9519790
-52.6226410	2.9437564
-14.8548750	-33.8514520
-30.9317020	40.9376280
-67.6724400	51.4622440
-67.1669660	-18.6860120
-81.9576100	-24.0144320
-22.1318180	-32.0711510
-7.5463913	-16.8741980
88.2249890	13.0968280
32.4168470	-32.3551190
4.2354909	52.2562140
-41.6776470	54.2882530
-36.7146500	56.7845600
-80.9714620	20.7640200
48.8287500	-35.8341670
80.0954260	47.1069350
-29.3639130	-25.2449300
-65.7217770	57.7173680
0.3788006	29.3772320
24.4329790	10.0719620
7.5641089	67.2096380
-20.0827800	31.1930580
10.1765000	-3.6428404
74.4039340	-22.8379950
80.2523970	-8.1952281
28.6601670	-41.4200250
-67.6470040	3.7784231
-35.7067050	56.4435730
