jMRUI Data Textfile

Filename: dataset16_nWS.txt

PointsInDataset: 2048      
DatasetsInFile: 1         
SamplingInterval: 2.5E-1    
ZeroOrderPhase: 0E0       
BeginTime: 0E0       
TransmitterFrequency: 1.2322E8  
MagneticField: 2.9E0     
TypeOfNucleus: 0E0       
NameOfPatient: dataset16_nWS
DateOfExperiment: 
Spectrometer: 
AdditionalInfo: dataset16_nWS
SignalNames: dataset16_nWS.txt;


Signal and FFT
sig(real)	sig(imag)	fft(real)	fft(imag)
Signal 1 out of 1 in file
49878.9890000	-25.0125710
49689.1260000	52.0127660
49483.3980000	-33.7046210
49259.4060000	-33.5902950
49038.6900000	36.5368350
48749.1630000	37.8829870
48535.5070000	-41.2859910
48327.3080000	9.5211095
48141.9310000	25.3104000
47920.9770000	61.1558560
47638.5620000	-36.5130000
47346.6920000	-17.5891700
47198.7630000	-44.0814670
46956.1990000	-41.0157560
46689.7880000	-10.9078770
46523.0440000	-4.4747552
46354.4950000	-54.8866090
46058.7050000	44.1704750
45809.2290000	-32.6697890
45703.8450000	58.5489900
45426.0350000	55.1207160
45249.9890000	3.9573053
45076.0470000	-38.7497190
44841.6370000	-54.2019050
44597.3160000	31.1433400
44405.6500000	-20.0270020
44226.7740000	-40.4797370
43979.6320000	45.5387690
43778.4380000	-64.0908460
43543.0750000	-54.1315070
43410.2330000	-38.5415780
43120.7240000	59.4489100
42957.5320000	-61.3870150
42677.6980000	14.0527710
42496.0880000	33.0104250
42307.5230000	57.8368790
42095.1090000	-24.4113490
41914.1730000	-52.3841070
41788.9010000	26.0157620
41554.3710000	-40.2601480
41306.6700000	-14.7955700
41104.1510000	1.1779167
40963.1630000	-39.9325400
40806.3770000	10.7671640
40639.4990000	60.9008650
40358.6330000	19.3953640
40229.7780000	36.5869310
39962.3820000	-41.0088360
39797.9960000	26.6047860
39629.4490000	20.9468620
39407.5050000	-9.2927569
39309.1740000	38.9437280
39024.5130000	-61.7339370
38868.2190000	-22.0911170
38706.8120000	-55.5298100
38492.5670000	2.8792851
38316.8250000	-46.4541840
38154.5120000	6.1712466
38002.7670000	56.4264700
37782.8900000	-61.5587230
37678.0610000	37.5674790
37430.0620000	-12.1879610
37319.6860000	-46.9192100
37076.1380000	29.9683360
36977.0790000	-42.7945900
36743.4010000	-36.1766560
36551.0250000	41.0949190
36437.5240000	-53.8612890
36248.8840000	-12.3529620
36096.4780000	-35.7936290
35964.4380000	-6.5833192
35778.2340000	16.6741100
35619.3960000	-15.0809140
35449.0850000	-22.6949900
35200.7740000	-19.6012550
35034.5800000	-35.9294180
34890.0850000	62.3952160
34758.1980000	-30.3476440
34613.4580000	36.0192660
34458.5980000	56.1160660
34304.1480000	21.0602890
34094.8560000	-61.2372900
33874.0180000	-28.8278340
33708.4810000	18.6810820
33635.1410000	59.9609040
33460.5250000	-8.5561876
33268.8470000	21.4077830
33115.8330000	-12.3068370
33018.5310000	3.0897207
32792.4770000	-33.3293980
32618.1250000	38.0164070
32460.9150000	54.1807080
32331.3550000	45.5239390
32205.7120000	-35.8418380
32056.5880000	47.5265660
31946.9770000	22.0706680
31738.1440000	31.2284630
31614.5700000	-47.4694410
31506.7740000	-6.0693181
31334.8030000	-48.1043800
31160.8030000	60.0285500
31031.7950000	43.2399270
30931.5080000	21.3574130
30755.8020000	-7.8043588
30589.1600000	54.4537770
30457.3200000	-51.2111460
30261.8700000	-50.1296240
30145.5240000	27.3073780
30068.2760000	62.1666250
29894.5470000	-1.4729247
29700.2910000	-8.4195842
29563.4290000	-59.2483830
29444.8470000	-22.1815930
29306.5970000	-44.5271910
29192.5200000	55.9962820
29021.4980000	27.9928900
28947.6380000	3.9960880
28789.1610000	5.5943645
28634.0430000	13.5279430
28531.1490000	47.6666960
28368.8200000	-31.6840210
28168.7050000	-11.5215020
28085.0940000	1.8393006
27989.0060000	-6.6617448
27834.8940000	62.2705520
27753.8580000	35.4776160
27522.9540000	-40.0377620
27502.5390000	60.9526530
27312.6380000	-25.9118850
27156.3290000	14.5792630
27060.5490000	-47.9525900
26917.2060000	-44.8845730
26758.9610000	-26.4079750
26732.2560000	-47.4810870
26559.9650000	37.8431050
26479.0630000	4.8445668
26259.9350000	14.5192410
26129.7120000	4.5073275
26110.0030000	-6.6005649
25889.7740000	-14.8804230
25851.7020000	-61.5603030
25712.7330000	-59.0752850
25626.2080000	31.4851840
25452.5470000	10.7474930
25372.2610000	-14.8585380
25166.4490000	10.4687320
25152.8890000	-0.6267246
25019.0410000	38.8135030
24843.9480000	-60.3543220
24784.0590000	28.7552240
24562.5150000	46.7454440
24470.3120000	-55.8794040
24345.5220000	52.7296970
24323.5180000	-27.7268350
24119.7210000	-44.1692780
24034.6520000	1.0588068
23970.1660000	4.6742831
23815.8110000	6.1371447
23692.5990000	15.3058860
23635.7240000	-36.2577300
23469.2470000	-3.4847852
23386.7580000	13.4038290
23321.9600000	-1.2030632
23101.8440000	56.8674430
23026.9310000	-49.7842390
22982.0540000	-62.2360380
22881.6370000	42.9424110
22767.0490000	20.6145520
22631.9450000	-7.3822323
22513.6250000	-52.3669500
22373.9490000	-42.2111800
22247.0940000	-45.5902210
22194.9360000	-7.1440945
22047.6980000	-44.0747020
22034.5710000	-60.0021100
21840.4100000	39.7879970
21767.0200000	-27.8056930
21627.7580000	41.6962840
21517.9530000	-24.3004620
21534.4230000	22.3278010
21412.0020000	-59.3565830
21317.4190000	-26.7394860
21242.3700000	28.3805750
21021.9150000	-55.6489750
21038.6360000	-35.9999560
20910.2090000	-1.0869920
20732.9440000	59.0194690
20699.8880000	25.2714940
20575.0490000	55.2837940
20438.1290000	43.8793680
20357.2270000	-19.0786080
20287.9160000	-22.6615210
20259.3830000	55.9886160
20066.3820000	63.7884800
20008.1520000	-48.9478270
19895.2290000	-16.4384790
19840.5740000	36.9476460
19696.2450000	51.2101040
19616.2560000	-27.3010940
19498.6290000	6.7991505
19512.8640000	17.7765640
19382.0390000	-50.7451130
19318.5680000	17.0886850
19184.0140000	3.2018332
19151.7380000	-51.7807600
18988.8330000	-35.4189920
18929.7530000	55.4550470
18770.6110000	63.9264750
18776.1420000	31.2847090
18608.4820000	21.3893630
18553.8390000	14.0265390
18432.8310000	-1.7125825
18341.1970000	-18.9290960
18239.2010000	-14.9101820
18156.0750000	17.4873560
18152.3690000	26.4056110
18003.6550000	39.1204320
17945.4470000	47.5456800
17809.9250000	49.4356060
17799.4580000	30.7508280
17727.0320000	-53.3542550
17667.3450000	29.4551440
17549.9540000	-12.8154660
17478.4960000	61.8487050
17388.8560000	-43.0081240
17318.1100000	-43.2625660
17185.6150000	-8.9953566
17070.3000000	-43.5219280
16987.2410000	-36.4819010
16926.3240000	-50.3481110
16930.6610000	18.1470930
16797.5730000	-8.0915268
16783.4450000	54.4840550
16625.4050000	31.5324510
16567.7730000	-61.0602960
16507.5690000	41.9174740
16394.4730000	-22.0090370
16303.0030000	42.3610810
16278.7620000	26.0725770
16219.1160000	4.2792792
16145.7270000	-19.6768270
15998.0880000	-24.2692010
15975.6760000	-46.7617450
15947.0140000	35.3108890
15760.4540000	56.4304710
15766.4260000	36.2217660
15694.0630000	13.6838370
15625.0980000	44.3811870
15546.9170000	37.7695980
15441.6060000	40.2052140
15341.2870000	9.1100564
15354.0510000	11.3955080
15275.0940000	25.4256890
15195.6680000	-13.6251890
15027.7420000	-30.8677510
15014.2970000	47.3111930
14908.1150000	-55.7705330
14928.1330000	16.8858880
14764.1130000	36.8074590
14785.1960000	-54.1891860
14669.6210000	4.6628979
14655.1640000	-34.5721230
14543.2150000	-60.9357100
14505.4060000	20.4432530
14401.5870000	23.9890070
14290.9550000	-5.2952125
14272.6520000	-45.4210170
14146.3870000	50.9846600
14064.7660000	-21.7266430
14039.7160000	-23.4042540
14042.0670000	8.4054525
13978.7610000	-45.3362980
13912.2540000	52.4186430
13794.9530000	32.3116920
13717.2830000	-47.3581620
13657.3680000	31.2914290
13564.0480000	34.9283160
13584.6190000	-7.9663953
13415.5670000	18.9365310
13380.5340000	-39.8002660
13405.4520000	53.8463940
13313.2770000	-24.9908440
13202.7890000	38.2444240
13098.5930000	-25.4610100
13092.2390000	-3.6742696
13040.3670000	-48.5921240
12998.7400000	6.2930747
12948.3690000	15.7635900
12838.3450000	-63.6649710
12846.7300000	-33.6727400
12712.7220000	-53.5085940
12718.9470000	60.9876540
12605.1960000	-5.4462900
12513.4180000	-40.6149890
12459.0460000	-56.2988850
12426.9930000	9.8222725
12415.9380000	63.8399070
12260.6980000	-21.4016820
12212.4800000	-58.6415930
12156.9660000	-6.1298798
12137.3480000	15.0344060
12080.5640000	39.3951080
11969.8090000	22.2416290
11953.7370000	-62.5342480
11858.5780000	-42.5399510
11868.4950000	54.5384620
11759.5130000	10.6431940
11778.9920000	9.1240001
11706.6420000	-39.5873920
11615.9420000	51.4936990
11644.2980000	-39.5529530
11509.8850000	-7.3332971
11522.9860000	25.0404420
11477.7110000	-16.2841790
11330.2090000	-24.0226650
11345.2330000	-44.3019920
11236.7180000	-15.9583410
11247.2550000	21.2798940
11216.3070000	-34.5803130
11149.2880000	32.5248840
11060.0180000	-5.4284275
11031.4380000	34.7264810
11008.4350000	19.7640580
10879.2810000	64.0940070
10814.9030000	19.2327680
10805.7320000	-20.3374340
10685.5290000	-26.7210330
10757.7490000	9.7792328
10628.2790000	-31.4327800
10629.9500000	-43.9672920
10575.3730000	44.1305950
10431.4910000	-6.8385430
10382.7020000	-35.0242040
10426.5490000	-20.7833420
10349.8940000	24.7856710
10354.7550000	48.7687800
10304.6410000	-25.8152560
10222.7690000	-60.9736360
10130.2670000	-4.9594466
10135.9760000	37.7173370
10111.3210000	-9.0099346
10003.7250000	24.5013290
9936.1523000	-56.4926750
9866.9565000	-34.7928560
9836.1796000	-60.1768540
9882.3304000	45.8546080
9772.7036000	-43.2629590
9739.1389000	60.4211330
9663.9969000	14.7144280
9628.2570000	40.2956320
9537.2723000	-2.9155103
9554.3856000	11.6083990
9511.5360000	26.0785670
9522.9867000	20.5304110
9399.0209000	14.4047910
9335.4274000	60.7544650
9289.2182000	-3.9137219
9319.2369000	-52.5249730
9176.9449000	13.7955300
9139.6899000	-48.7231040
9160.7884000	47.3555180
9053.6776000	36.6959710
9063.7795000	-30.9217900
8971.0171000	37.4910240
8921.7095000	22.6122530
8979.4572000	-40.4320850
8944.8271000	-5.2465446
8914.7663000	36.1354690
8813.4603000	5.0454977
8746.1124000	19.5232530
8682.1220000	39.1200290
8667.2880000	26.6265140
8612.4277000	-44.2775460
8649.0445000	-50.1407150
8608.8108000	51.0767540
8482.0092000	8.6560127
8547.6362000	8.7688691
8508.3768000	-29.9778620
8431.4607000	63.8743640
8393.1712000	29.0485140
8353.1184000	57.2884880
8310.5073000	11.8071410
8290.8447000	36.8046950
8247.6425000	-40.8504930
8236.0775000	14.7914740
8115.6881000	-42.4274600
8125.9358000	45.0596770
8004.1415000	-15.0751100
8072.7110000	16.7742140
7954.9930000	16.0468780
7991.1107000	16.9045760
7881.2900000	-36.2250670
7830.0726000	-34.2244650
7874.2539000	-47.4496340
7781.3023000	19.3973890
7742.2491000	-37.2955650
7697.1746000	-52.8732040
7699.4841000	-45.4430880
7652.2411000	16.5512930
7591.5447000	-63.0743370
7604.6169000	22.9133790
7485.4039000	31.8528390
7469.2840000	-28.5134610
7443.2498000	55.6793820
7464.1742000	28.5481550
7402.2548000	-53.1817310
7335.2956000	-14.2592440
7293.9573000	-18.3401730
7327.2778000	58.9810810
7324.3840000	-37.0510920
7215.2437000	-38.8904800
7257.3559000	59.8769530
7115.2642000	39.4730130
7173.4393000	-48.4058570
7083.8962000	52.2651880
7054.2159000	15.9385190
7050.4847000	29.7091570
6989.5403000	-13.7398440
6901.5698000	-44.1004080
6917.3733000	-6.6861251
6910.0136000	-42.8517690
6840.8471000	-49.1252820
6893.4665000	24.9413430
6835.5522000	37.8144050
6725.4736000	20.4662030
6764.9493000	-51.1202200
6699.2521000	-0.3132673
6734.8953000	19.4245060
6598.8817000	29.2137580
6598.2743000	46.9878810
6554.2308000	-50.4433970
6573.3230000	21.1431390
6483.3794000	-11.8548160
6502.3596000	-55.3316950
6397.0420000	52.1254500
6403.3901000	51.9346410
6436.6733000	-32.1111430
6382.9556000	-13.0446830
6310.5958000	18.2903520
6274.8553000	-22.1869310
6299.9742000	8.2096571
6222.7683000	33.2494120
6190.3983000	-14.8190910
6178.0027000	4.4478673
6140.3142000	53.9500090
6191.2201000	17.0507270
6148.7067000	-10.7918890
6044.9595000	-17.1035480
6080.7320000	-30.0557410
6080.5710000	-16.1767980
5933.2292000	-55.9930390
5951.8817000	43.5045110
5897.5141000	18.5425760
5935.4716000	-8.2403467
5882.0100000	35.6723080
5905.5665000	28.0527090
5836.2310000	36.4524570
5738.1357000	-27.5630880
5727.4485000	41.9287760
5787.3935000	14.4071670
5775.8698000	9.0698084
5738.7038000	53.6352120
5641.2022000	-25.7206750
5601.5761000	-33.3907840
5665.8805000	-12.7557380
5539.4768000	-41.2435490
5551.2083000	0.1786188
5557.0679000	22.1018480
5521.7257000	38.3783270
5509.8043000	-32.1222760
5450.8718000	53.6053470
5445.7269000	-9.0060483
5455.0849000	-63.0247220
5366.2801000	22.3800470
5409.4328000	39.1052140
5355.5907000	-4.6298209
5346.6128000	16.1469540
5304.8901000	1.8312703
5264.4698000	34.8947520
5206.3948000	13.0715650
5240.4509000	2.0192732
5234.9980000	-19.9788910
5128.2384000	-0.3552453
5109.6179000	40.2193150
5101.7116000	55.6909140
5045.0269000	-42.5532100
5007.1104000	21.1132400
5086.8792000	-51.3034100
5051.7462000	28.2972030
4969.8079000	-49.8982800
4922.9699000	-60.6618910
4884.4943000	-26.4273650
4969.1234000	-12.1311070
4888.8898000	-27.2391920
4866.2801000	-56.1030020
4814.5387000	-46.4780430
4857.3230000	41.5027260
4784.7258000	-57.0331990
4837.0240000	47.1743080
4756.4044000	-47.4220340
4683.6363000	17.3387990
4655.2232000	20.3430630
4655.4444000	-53.4925230
4662.4440000	-40.3534860
4688.6865000	-4.3347492
4646.9351000	52.9870660
4585.1383000	-14.3420050
4548.4369000	-23.5661900
4520.4032000	28.7348960
4489.7031000	-10.7925480
4556.6224000	57.3017310
4436.7476000	6.9505845
4438.3613000	53.3687660
4499.7916000	-10.9376740
4487.2225000	37.8181410
4367.1480000	46.0174290
4366.4944000	-24.6529150
4356.9569000	3.6907374
4319.7765000	-32.7122520
4351.0120000	-9.7742906
4327.9615000	-30.6123680
4239.7176000	-9.7423813
4217.5364000	16.5956900
4297.8479000	40.8363360
4265.4973000	-46.5782370
4265.4309000	61.3624070
4144.3745000	-48.4160890
4133.0551000	-13.6553930
4116.4332000	27.7440890
4180.3777000	15.7539560
4115.7249000	15.2395260
4095.1057000	-14.8654390
4058.7699000	-63.1513960
4016.1867000	-29.7548560
4013.4732000	-6.5487246
3995.9820000	41.8842550
3986.0267000	9.4492882
4011.4185000	-16.9521160
3954.6984000	-53.2846120
3888.0109000	-63.2330860
3860.3605000	42.8515550
3963.8143000	54.9543830
3858.8052000	-23.0014330
3877.8329000	29.4209680
3898.0430000	14.2642540
3774.6331000	-32.9851520
3873.1298000	18.6131610
3731.5499000	-45.4411620
3781.3613000	17.6712650
3785.4371000	53.7142650
3785.9755000	-34.9397810
3733.5313000	15.8867120
3691.3574000	34.0152010
3671.1090000	27.5490470
3635.2277000	-13.9154140
3610.9810000	16.5134060
3648.8908000	17.0298830
3573.2582000	24.5342760
3644.3639000	-60.2464380
3550.5043000	4.3837143
3610.7097000	2.3262783
3558.9546000	52.0163720
3505.3520000	-55.2343660
3541.7685000	-22.0036130
3558.8703000	5.0201336
3446.1339000	45.2875560
3451.3480000	-31.9099590
3390.3490000	-41.2723950
3450.4864000	-26.4577350
3477.1031000	28.3357650
3375.8573000	8.6667441
3449.6001000	41.1552560
3428.5608000	24.0299890
3308.1107000	16.0909950
3329.4481000	-0.0856311
3280.4850000	-51.1269220
3311.7269000	22.6985410
3251.6522000	21.6398510
3244.8053000	-41.8108890
3258.6817000	9.7848721
3304.4760000	-63.4817050
3220.3321000	36.6215220
3239.0678000	-26.4327600
3167.3609000	34.8316140
3233.6330000	-63.6722720
3219.9553000	30.7154310
3157.1013000	36.4349250
3198.1388000	14.6895980
3067.3024000	18.2009440
3102.6322000	-48.2586340
3081.4620000	3.3500855
3121.5120000	44.1890870
3112.2329000	-21.2354290
3045.3077000	-11.4166220
2982.0713000	-10.1418740
2968.0383000	-23.5935860
3055.6135000	29.3364080
2994.8850000	-53.7947480
2993.7537000	60.2237830
2977.0260000	53.0912750
2939.6727000	-35.3327680
2944.0437000	57.2183900
2979.8497000	15.9614200
2863.4501000	-34.6886140
2879.9379000	-1.7442603
2830.5368000	-7.6625041
2867.9903000	-21.1823430
2909.8135000	34.0208940
2863.8952000	46.6672570
2850.3019000	-57.5801550
2834.7241000	-7.9347553
2854.6298000	-23.6606740
2805.6240000	-23.0655570
2825.8469000	32.0777560
2829.6902000	-45.5476930
2757.9069000	34.8616450
2796.2819000	-13.0713910
2707.2553000	-0.8757283
2697.4102000	-30.6472480
2763.2841000	-39.9097670
2667.6029000	-45.0388230
2614.4199000	-39.3311310
2658.2525000	-0.2217056
2601.6830000	-63.0181710
2654.2296000	-63.0241010
2606.0409000	-8.2472213
2622.9523000	-23.1202520
2543.9394000	-62.1936500
2618.0620000	-38.0021620
2563.3291000	20.9477840
2528.2180000	32.5086540
2603.5987000	17.8208820
2561.4898000	2.1504108
2523.2814000	-44.5699450
2529.0450000	36.2401920
2482.3120000	-12.0734490
2520.5928000	-20.2770860
2432.2368000	-7.3786222
2496.3802000	50.1925630
2432.7511000	22.1849380
2398.1882000	-53.4655840
2437.7394000	53.4941830
2469.7484000	-37.9074480
2472.2246000	35.0932310
2438.9002000	22.1390890
2389.4297000	-60.5772840
2362.1496000	-22.8732560
2389.1627000	27.1088950
2293.7297000	-37.1789680
2326.3064000	-35.9518360
2339.8011000	22.8841510
2379.2126000	-25.7507920
2284.4622000	-38.2867840
2303.4497000	-13.8289380
2322.1145000	-49.4122490
2304.8463000	-21.1176690
2296.6493000	2.6756083
2241.6045000	10.7011220
2260.9695000	24.0085460
2245.9585000	-53.1959620
2170.8750000	23.9831010
2269.6127000	-36.7473220
2251.4533000	13.1093250
2219.3252000	33.7754820
2123.2717000	-45.5335960
2162.3581000	15.6728170
2121.3202000	-13.5988140
2135.4997000	-62.6281940
2080.5872000	-41.7861770
2159.1651000	14.7535280
2081.0195000	51.3828190
2166.2345000	-44.2875410
2116.8554000	10.9879150
2096.1667000	40.4221750
2119.4324000	-25.3261000
2106.2175000	-57.1585370
2059.5486000	33.3616100
2017.6979000	-44.1204270
2022.6291000	56.5381710
2055.8654000	34.8089750
2071.1283000	-0.1389962
2072.3932000	-2.3949751
2053.2631000	-18.5586810
2034.1067000	6.0886775
1970.6139000	-17.2633920
1939.4653000	-61.9920330
2032.0553000	15.6231790
1953.4596000	-40.3860550
1993.5088000	-54.6733260
1878.6968000	54.2620250
1904.8351000	-52.8755570
1982.0660000	-31.8212250
1890.3632000	-33.3750190
1961.7797000	-55.7325800
1953.3408000	-58.0886300
1835.3612000	-64.1065250
1855.3546000	-58.9505990
1809.5801000	-64.0312530
1837.5785000	-17.7094030
1844.9090000	45.4343670
1812.4675000	-47.2517950
1873.5510000	7.7621763
1852.2909000	-13.6290010
1766.3047000	-31.1548690
1790.4293000	7.7659126
1839.5733000	-49.8806440
1776.8222000	-9.6062405
1744.1108000	36.3302990
1797.5498000	-2.2781392
1805.6881000	35.3128110
1792.0324000	-25.7770330
1726.1054000	-22.2817620
1740.5543000	55.8979930
1725.3918000	56.5630300
1750.0929000	7.9801588
1759.7828000	24.2323350
1733.3550000	7.4551203
1725.6491000	-44.8805870
1740.2227000	54.8518570
1693.4955000	49.6152130
1720.1776000	61.2711390
1616.3116000	-24.2526150
1682.2884000	14.8552030
1590.5489000	15.2905980
1672.0215000	-46.3549220
1575.0512000	-1.3285729
1588.7670000	-32.2453760
1574.4768000	18.0765150
1635.2523000	-39.8385130
1572.3260000	61.7723500
1584.4711000	39.7283690
1570.1027000	19.7617220
1611.0192000	29.4595080
1564.8289000	8.6421931
1611.4651000	-24.3963340
1538.3447000	48.4985870
1601.0161000	-43.2951000
1536.7349000	25.6707110
1512.3545000	-39.2674150
1484.0959000	-36.7579270
1579.5987000	32.8049880
1478.7612000	-42.1824780
1550.5133000	21.2082750
1523.0863000	-41.7615460
1514.7450000	26.5199770
1531.2178000	-33.6432270
1467.5985000	-14.9177220
1427.4927000	53.7824450
1514.1851000	46.8908130
1409.1953000	-30.7050100
1489.2189000	27.5089500
1424.0311000	29.1914040
1381.2000000	-14.9608420
1427.3963000	-0.4742190
1481.0548000	-45.2035520
1442.5139000	25.5153980
1479.4106000	0.5843992
1433.2524000	-7.6524316
1340.0343000	31.9998470
1434.4270000	-22.2828990
1382.7658000	56.5755970
1393.0262000	26.2218960
1426.8835000	35.9712440
1344.5525000	14.4273780
1387.6179000	-35.4850530
1366.0578000	40.4219890
1291.6287000	55.9099850
1408.3187000	63.2497650
1378.1617000	19.9028620
1295.7616000	-17.9915290
1368.3532000	-1.6001857
1282.1781000	-14.1617580
1270.4089000	56.4109100
1260.5699000	30.4728410
1365.1217000	-20.1057050
1256.7646000	-40.1371730
1320.1867000	-46.0001830
1326.6882000	-32.2095240
1265.0825000	-11.7833450
1261.3328000	60.3824770
1313.8282000	20.9991250
1269.3272000	-22.6890320
1253.4096000	-52.0303240
1204.7612000	21.8034740
1298.3743000	5.6936416
1207.9861000	-35.6632260
1242.5894000	33.6639850
1255.2216000	-23.1146210
1183.1883000	-4.6598674
1246.0582000	-12.0494320
1226.3090000	-26.4309020
1211.9449000	-63.7357790
1164.4490000	4.8328434
1252.6468000	34.5386960
1178.3337000	-34.8378680
1133.9436000	32.9084700
1117.0547000	-17.6696670
1165.2544000	41.3149920
1158.9636000	27.1140130
1175.0490000	-5.0466377
1202.2952000	34.9741930
1139.0632000	7.6995907
1087.0073000	-54.4611750
1175.5283000	-33.8897860
1096.1939000	-44.4016810
1140.6256000	-33.5061200
1164.7129000	44.5011470
1121.6017000	23.3336860
1051.9236000	43.1472760
1143.6879000	31.0261980
1121.5234000	-54.2622820
1117.5329000	-51.4004360
1100.0466000	-2.7127842
1115.0477000	-34.5921340
1061.1819000	57.5410140
1071.1723000	2.0681252
1023.1334000	56.8930300
1002.8004000	29.9017000
1097.1649000	17.1428160
1067.0349000	-57.9542420
1107.4189000	21.2832860
1014.7494000	11.2005540
1057.1575000	0.9270833
1066.1472000	-1.8707239
1039.2995000	-55.7562090
1052.4685000	45.9566060
988.5500700	48.2276230
956.2132400	26.8729690
1022.8130000	26.2161270
1000.0255000	-6.7821811
986.0814100	-33.7878790
1030.5513000	-23.1050730
1005.2453000	-3.8539449
922.1066100	55.0916250
940.9025300	-14.4543970
958.7136100	-36.4287370
963.4001100	35.7860850
1024.0388000	7.0275172
943.8953000	-2.3937151
981.2492200	-49.1037760
943.4898000	7.5173000
929.3688400	-37.2626270
908.2935000	-15.2005020
910.1577700	37.5211190
948.1702800	-17.3196750
985.3662400	-41.7877000
988.0581200	-31.8492050
862.9107400	53.0382360
908.4256200	-53.5207880
974.3747100	58.7496200
880.1434500	4.1297585
926.8221500	-23.9271680
921.3665700	44.5152860
906.5958900	47.7324980
849.2901400	-29.1418140
837.0981300	-54.3497610
834.0979000	19.1275780
915.0078200	-46.7729630
917.6251200	-37.0219890
873.7823100	6.9925077
903.3652600	62.2968080
899.1373400	34.3619270
833.1619900	32.4136780
840.3305100	42.5628020
836.7508800	58.3073880
862.1642200	30.3214190
853.7613600	22.1698640
805.3924600	-60.1957370
862.0769900	-29.4715110
844.8971100	-24.0527220
816.0266600	-8.8814525
779.8209200	-60.8188070
834.3221200	-17.8437620
836.9516100	-6.7593781
854.6819600	54.8353210
800.2229000	-13.2633260
841.4054300	28.6511030
741.7092800	-13.9326950
809.6327400	63.7054320
795.9795200	0.4009254
754.5091400	-30.8720720
844.4269500	2.6381183
807.4771300	-49.9285090
734.3411800	-22.6630980
811.2808700	61.7293590
800.4613800	-54.0784290
721.0181500	19.8032780
822.7293500	21.2072870
750.6093600	-51.0576210
790.4943500	-35.3184480
790.6775500	-17.7634160
771.6192300	-12.9277540
734.5942500	-13.7097890
773.7215700	-55.7684620
767.9917200	-12.4145480
743.0997100	-27.1088270
745.6443500	-54.0567850
669.9375500	-5.1223666
696.7751100	-48.0224620
761.6869400	13.7029000
681.8702700	3.4710730
699.0435700	16.1191120
689.5284000	28.8104230
738.6701400	-20.6534760
648.2904400	-31.3103950
736.2427700	55.8100580
658.6094600	0.1487160
756.3140000	-44.8498590
639.4410400	11.6278080
676.5402700	25.2864920
721.4135900	-21.7200580
675.7981400	-52.9058960
657.5264800	51.4588480
667.2937000	-41.6013990
648.7221100	-33.8511200
731.8493900	13.5347200
627.5428200	58.8572550
642.5754400	11.8326840
613.2543400	23.1206440
622.9846700	42.9861540
667.4215200	-20.5341810
640.0139600	62.3174200
674.6620600	-20.0341890
699.5695300	37.0247720
686.4908600	-49.6987770
636.9157200	-23.2833880
699.7686800	-48.5373100
572.5352500	-12.8833720
625.4382900	-45.5958650
600.0318400	-37.3881510
568.4887500	22.8067620
579.5184900	61.5664310
569.0423500	42.5807900
558.0881100	-42.4208150
579.9947400	19.6373880
570.3556800	15.7626410
602.3154400	-8.4227931
571.8194900	56.6813450
560.7153500	-37.4119540
574.0528200	-28.0667990
640.3094900	16.0941760
595.3043100	49.2830450
595.4553600	-1.4741954
637.7089600	-34.0154200
559.0548900	53.9564040
554.8158100	-43.6037230
576.1529300	-9.7550562
575.7203300	24.0555000
594.3017400	56.0063800
599.4797500	4.4492680
578.7529700	-60.9083530
543.2954400	-40.3620030
608.5059400	18.2827530
571.0766700	36.4189230
571.6419200	49.4348890
570.2907400	1.0340701
516.6410600	-23.6421770
581.6700300	-47.1576200
538.4244500	-63.0886390
572.3972300	56.3873230
486.5389800	-15.8870850
527.6800900	55.9398690
537.2486600	-36.0242400
540.6644700	-46.1333890
529.7927400	28.2829220
583.9436100	22.9503850
539.4071400	28.7042460
506.4103000	2.9047982
460.7152500	-60.0511870
479.0625900	57.9561560
540.5333300	-40.7384380
537.3324600	45.9281600
506.0005600	47.8503630
475.1848200	-37.4998500
475.2789500	36.9728740
522.6014700	-21.6919620
478.6619400	-37.7064840
513.1654900	-24.6109950
547.0595400	-64.0240580
473.2999600	-24.3192350
459.4397800	-21.1482740
453.5849400	-13.5652790
452.2833300	4.9008152
507.6894300	-9.6055103
430.2224400	13.7537470
498.0986000	-24.9207020
445.8057400	15.1206370
538.8854300	13.3105410
432.1794000	-56.0498960
525.9658300	61.4346460
492.4542200	-26.5787070
461.4963500	-44.6142690
523.1384700	25.3985290
404.3329700	-13.2746890
458.6685800	-27.9300360
486.1173600	-6.0981630
422.9756400	29.1092360
394.6547400	27.8439630
498.2962000	-33.1769730
395.9131800	-15.7446620
389.4355700	-20.8343420
490.7435400	24.1280510
431.6750600	-18.6036670
449.0843500	19.6821210
456.2781900	-36.3192090
484.6964700	-14.5107620
394.5186700	-27.3429770
472.4861600	20.0954210
419.2066600	-1.1635907
405.5546400	29.4788340
379.7189900	-33.3874510
461.4365400	-7.6158950
397.3088300	42.5656030
371.7881500	-53.7049170
372.1099800	-41.8641310
411.8808100	-52.3884290
464.7603200	-2.7256282
381.1638200	-52.5981530
399.8375000	53.4821950
463.9792300	61.6297570
362.3238500	-37.7798930
445.2466800	-4.4202674
427.9171700	-12.3571370
437.8785900	-14.4144400
363.1606200	50.3953200
338.6092200	-26.4813440
423.5197800	25.6011050
429.3059200	2.6618231
371.3570500	-45.0454860
332.8699700	-32.3874080
400.4892300	25.1140390
338.1936300	-14.4126820
440.3242200	-21.7080460
337.8787700	8.5594622
388.5380000	51.0602310
345.6974100	-10.6709980
390.5045000	59.3354800
331.8494900	24.3203060
358.7594200	57.4699570
403.3443400	43.0501900
346.8390900	18.3166950
411.0781300	-0.3434121
373.0366800	-60.3019600
402.9188400	50.2686690
379.5893400	-46.3248300
369.1104400	52.4214220
394.0958100	-4.3622852
387.6583400	28.1898480
294.1517200	62.2817900
310.2158700	55.6421830
309.3274000	-21.3735330
373.4602800	19.6495420
342.8072600	-41.4341680
312.2509100	34.6717290
387.5993200	-2.6608560
387.9123300	-21.9645220
291.1722800	9.8398916
287.8709000	50.4887360
383.9091100	-44.4053700
298.4224900	-11.4093030
321.3828900	-11.0032630
396.7252600	21.8950130
387.5261700	4.8410284
332.4650400	-6.2889124
333.3698600	-13.2937660
289.0548900	17.0286120
281.6258600	-46.3079380
303.9126000	57.0396340
296.6420100	62.9300700
349.7236700	1.4421109
272.5825000	-12.1158780
376.3206900	50.7241820
325.6440600	53.7567830
341.1324000	-40.5973980
343.6162200	-48.8469750
318.1725100	53.1727100
274.0619400	-34.7711060
363.5884700	-27.9848120
282.5743200	-51.8310030
259.3913400	-29.6811670
322.7966600	-45.4824660
255.5164500	-38.5398720
335.0246100	47.0563410
343.1318300	20.3538950
361.9506600	31.9507130
245.8861200	4.8150199
263.7043900	-18.2432910
322.3745100	38.3091110
253.7636900	7.2299614
341.7628400	-6.4437715
276.2749200	41.2084770
315.5392100	-20.7835220
341.6428400	-38.0629870
318.2047200	18.4881560
297.4871500	11.3761800
230.4253800	-34.6527470
303.0216800	32.6512650
280.3204800	-56.9085840
328.8051100	-10.5398470
259.3941600	-19.7692670
254.9799300	19.6993440
220.3024800	34.0654460
326.7005800	-41.7541520
257.0562100	-13.4236310
236.0968500	-37.7630040
323.0104600	20.4986550
231.8300300	-55.9549220
278.6362600	-10.3733620
295.7758300	-34.3255750
298.4462000	1.5499916
207.9065700	-2.4794626
291.2896100	21.9083600
319.8509200	63.6269780
326.3907800	-43.1043630
267.6859900	-29.9064140
208.5679500	6.1023802
243.2346600	-35.8669980
317.1417700	3.8931877
212.6167900	-29.0681600
246.2465100	-27.8528210
290.5062600	58.6444380
288.1281100	41.2302820
215.7193300	-58.5282280
288.0077000	-16.9540170
311.6848500	-51.6475130
192.7696600	27.0883440
301.7516400	-3.8145716
218.7365800	63.8355880
268.0936200	-57.6573120
277.1949200	55.1967320
225.3320100	18.9033510
198.0393000	-49.0454270
247.6213600	18.0082290
260.1015800	-18.6612120
200.1066400	-0.4329251
260.6363800	62.9647540
279.4459800	61.1322760
200.2197300	44.1313100
265.6195900	49.1723110
248.3173800	-34.8982100
174.8959200	9.2056480
214.0669100	36.1554620
233.0705700	-36.8145150
275.7102300	14.3148460
182.5441900	-8.1088378
249.1116200	-43.9843550
263.5815300	11.5309690
264.5873000	0.4809128
213.5331500	-14.9004560
197.7816700	41.8018860
240.4306100	-49.4467790
180.5997800	-46.6126850
282.3948900	35.3587330
216.1067200	26.1486590
163.2927700	-51.8732740
209.1409700	-7.3395428
187.1342900	-45.7148620
234.8401600	15.7497890
203.7437500	-46.6725770
216.9681400	-62.2869310
271.0255700	-11.0967010
189.6532700	-11.3010710
239.9157000	20.9452980
262.3487800	-56.0404640
184.8186600	22.3266650
220.7628100	25.7329680
226.6321600	48.7412730
265.9673300	20.8375520
175.0580800	49.6417340
186.9779500	37.5524870
220.1734800	24.7713450
188.7980500	-4.0090187
235.8305900	26.2225110
213.1270200	-24.0458190
259.2502200	-2.0953846
237.0221900	10.7044490
137.1139800	-34.0755470
205.2894200	18.3531500
168.2265700	-22.6115690
151.4679500	45.2449440
233.2000200	43.1297930
167.0038900	-18.4923760
209.0585900	13.4761100
226.7063800	-16.2992220
181.9651600	-52.2684410
248.5176300	-30.6167900
240.5623800	-33.8555170
209.3699900	30.9785790
176.1373500	-24.0182640
160.8827000	50.5175930
226.9727100	45.8966370
119.5951900	-15.1906870
245.5128900	63.1093560
192.2828600	-9.7278943
117.3732700	-2.9102132
152.0904800	48.5356800
198.7644400	-17.4190670
139.1511300	-47.6283330
172.5292300	48.3588380
206.6816500	24.2646740
173.1388000	57.8919150
212.2293100	-41.7985240
149.3305700	-27.1174140
110.6546600	42.6741750
116.1521300	-2.1931456
157.6366500	-55.4958320
165.4022300	-3.5568129
194.4452700	-12.2370740
217.5620700	34.9419090
107.9057100	-13.7934000
201.6892400	-27.9120450
181.7210000	10.1200660
158.0206100	-28.5885560
101.0875700	63.6613600
153.0871000	-47.2956540
117.1687900	-20.2622380
126.0938100	-18.9164620
124.3326900	5.4255373
124.5332500	53.8494390
119.3429800	-45.0140900
171.3778200	32.1224500
112.7225300	-50.9851460
133.9912100	4.6091004
163.2297300	-43.4493810
181.4109400	-33.8945040
128.9213700	-53.8970940
109.7713800	26.8483970
143.4932700	18.8162760
194.0210100	51.1779200
107.1518900	52.6275610
151.2551600	-4.4700752
112.7901200	2.3127144
133.6291300	-41.6243880
212.8813300	31.5355030
208.3250800	-45.8060440
177.3044800	-37.8228750
151.5057100	45.9885800
103.1064900	47.0624100
116.0405800	54.9230740
111.5689100	46.2674210
103.7390800	36.1248020
90.7124860	-61.8784050
188.3567500	12.1657610
85.3434010	-42.6930400
172.3055000	-49.6326770
143.4060900	-25.1023650
97.2055180	-5.7942870
163.9141800	-5.4316312
137.4082800	58.2856210
174.4439300	-25.0742140
187.5258700	61.0627250
131.9183500	-61.6024570
136.3646600	-36.8932870
148.9808700	23.6154090
161.6228500	37.1384430
115.6337600	29.7143320
177.4817100	9.9349712
186.4192300	-14.1082110
146.3629300	26.7509990
175.5601500	-31.5531920
68.5028030	-29.0060270
99.0283490	63.7002900
165.0931900	-43.2346180
149.4925700	-60.8514270
115.8109400	-30.8885090
145.9217700	25.1549360
78.6347530	4.3904344
162.5899100	61.1917030
127.3533500	-3.7926375
148.3355400	40.6326790
105.0336000	-37.6117310
130.2202800	-16.9614270
164.1266700	48.9707220
133.5479100	-39.1464290
66.8945270	-12.5296900
121.0690100	26.9001000
102.1143900	-61.7542860
79.1635830	3.1383224
172.9800200	-34.1936140
166.6492400	-11.7809660
160.2804100	-2.3969105
85.1722330	-24.2425470
164.0804800	-5.5941303
168.7539700	56.4876850
163.5634700	12.3656940
114.4544300	11.9474400
84.6429600	-5.2936176
124.6588400	57.9320440
175.6061400	-31.4150110
145.6758600	19.3787340
68.1567530	0.6665597
122.2234300	32.5544670
56.8858320	50.0826940
128.2241400	25.2976560
82.9540680	-15.7292680
60.6880530	-35.8916250
143.3995900	-30.5078430
98.8435590	-7.0959361
74.9482360	55.5266840
147.7763900	8.4980060
116.0550000	-63.4955640
48.8071180	32.7577220
146.6235800	1.3026706
145.5067500	-6.0557149
89.5216640	4.1430294
71.1551550	54.6110190
79.2080410	22.9652380
163.7326300	32.4707070
89.2219000	-3.9760189
130.3707600	2.6003998
118.4550800	41.8023900
87.7965970	29.6324270
155.4689400	31.5360470
136.8586400	-10.1939490
159.0653600	2.6125487
152.2195700	31.1359180
94.3804830	-3.7282523
99.6096100	50.2231250
156.8206100	-46.4553000
73.7100440	14.6980260
59.3227790	-57.6494230
162.9604600	-4.6850029
78.0306360	53.1292530
159.0785100	-14.2635750
100.7106400	-61.4526330
124.8441200	-39.8981460
91.5747310	-58.1939300
100.9975700	54.3895170
67.2852760	-21.2428650
101.9113100	-33.8252800
142.5024900	-8.9569011
134.1024200	32.0187290
105.9859000	-49.3532570
83.1796230	-7.8934171
42.9877950	62.3794020
112.4804600	39.0354430
66.9078100	18.0238760
144.5033400	-3.3772098
151.9338700	16.1819420
93.2545680	36.1594660
46.3450880	38.2332760
104.9689500	40.9666280
49.8954220	-58.5713100
100.8833500	33.2068360
113.8922900	57.3122680
122.6063600	-44.6865140
147.2607000	-58.1174460
99.8681870	31.8563190
69.9170650	-21.1016930
98.4586030	-15.5339800
91.0067840	33.3901420
69.4230070	23.3559850
71.3447660	33.3445820
53.2037870	9.7013663
28.3813150	1.2147071
42.8610720	-38.5324970
40.5935830	13.6314240
82.2028210	-47.0435830
26.9299470	-49.8857530
18.9885160	33.0944500
106.6629900	-63.8051780
98.9375820	-3.7726754
105.5979700	57.2437870
31.1797620	-0.4378394
50.1847340	17.9592430
37.0509700	49.6925560
99.7049770	-10.4959380
31.0388900	-34.6245340
132.8773500	53.3021830
21.8169570	-27.9257040
118.0599600	-8.4782971
16.1952900	50.4146880
91.1725620	-23.2007280
34.9588270	-57.6459180
122.0780000	-27.3569460
106.6841500	60.9468470
42.0639120	6.3726627
33.2801320	-54.5779540
47.3395260	-29.4923380
90.2498890	60.5208340
92.0741590	9.6461601
94.1065550	-43.6336070
19.3110730	0.7995652
84.4387220	-7.0799575
27.9976180	29.7526050
15.6724880	38.1322010
17.2328910	35.7662060
92.7020400	-24.0440900
129.6158900	27.5951260
58.2304420	-64.0678660
67.6327650	-58.8579990
122.2095500	13.9537200
42.9025140	-59.1415810
27.8022130	53.1872260
41.1129380	-12.1386880
122.7399900	42.2199710
74.8142660	28.2784600
92.5612230	-31.9574460
123.2684900	44.9924970
34.4631460	-13.0052390
73.9577000	-53.1048500
121.7937400	13.3780240
70.7048040	11.6082520
61.7703340	-52.2726940
82.4414730	-3.3185759
31.0337310	-14.0430090
80.1812120	35.7142080
40.7775200	-30.1062920
9.4208452	-23.8749940
45.5434060	-13.8892580
80.4052480	-41.9194750
108.8156600	23.0738270
108.3305200	-44.5031680
90.7231230	51.4831730
76.6480890	19.1752210
122.0750300	-43.9414190
40.4082660	51.6410740
68.7553150	-41.4708330
10.5919550	-47.5372380
57.1025110	-30.7148790
64.8195230	3.6608266
108.5906500	60.2053840
76.7868180	-56.1117510
11.0802980	59.1727380
13.7402250	29.2085570
54.7881640	32.4191660
-1.5399617	-42.7290760
56.4648270	-51.8841220
55.7774530	-23.0475610
105.5346900	55.9373160
120.3604300	48.0048600
57.6760310	-34.2227260
8.7213745	25.2848250
66.1007090	-10.5206250
43.6497210	-30.2301940
63.6532490	-20.8236410
31.9161700	45.5530790
91.1148980	40.6128830
51.9073700	-17.1801010
104.1790800	-24.4782730
110.7429000	23.6081000
89.8371340	55.3937970
68.9742970	2.5532392
12.5039980	3.3997526
19.4591110	24.0972040
110.4937000	36.4735290
115.7944500	-38.4036600
90.6966240	-23.2489740
85.0766000	1.6952539
34.8197320	50.6504980
28.0721930	30.2389140
-3.7159256	-14.2160790
108.3804800	-56.0095890
97.6702110	4.4196325
39.6338690	-56.7654980
54.9044140	46.5487140
90.5251740	22.9184950
76.7078830	33.7452220
56.7055240	-24.0956040
96.7888880	8.0626911
91.3784730	-15.5629160
40.3892970	60.6555530
-2.7295977	-10.7153250
79.2992030	-42.0802800
108.5671800	-2.8752086
73.7291360	49.2228210
63.2533320	-57.3740700
58.1389680	-32.8982180
106.2621400	-47.8760980
109.4831700	37.2052230
100.3441000	-63.7951710
83.6570930	-13.6753620
9.9290744	62.7860190
101.6856900	-30.7936550
47.5672850	-7.2473644
73.4357840	-29.5428370
93.1701540	-63.1538550
92.3028890	15.8613830
1.5617556	-49.2840110
56.7138880	-41.3213910
40.3450530	2.8188068
38.1320800	15.6625220
41.4357190	-4.2505238
57.1920370	-3.9254500
98.0695630	-58.4891890
47.4430220	-43.1682320
82.2280940	-61.0193230
53.1681670	14.2446800
0.4817596	-13.0838270
67.4936810	-51.4358760
28.1254770	-47.3083790
98.1594330	-39.6049730
8.2051591	8.2979453
42.9433640	56.8082320
51.2705550	2.3555237
-15.8777570	42.4617770
37.1812030	61.2793480
19.5432010	-41.2836450
-18.3552920	-40.6491180
-3.5812478	-27.7078470
19.5462540	-30.1406420
7.3287987	-43.0074020
-0.3251982	-45.5700780
-16.4161560	-62.8255500
83.6061020	-62.4273350
70.4796830	-0.5232500
97.8593400	14.5071510
54.3981120	-7.9705589
63.4894850	62.5821290
26.0615650	40.5703510
27.8176980	10.8823590
89.1065740	-29.4819580
29.3824940	-35.9538780
3.1459225	45.9668490
-4.5514953	-14.6136990
7.0029514	-44.3631370
101.5646800	-2.6996565
85.5626280	-49.2239260
34.1362840	8.4124428
62.4668080	-25.3847650
54.2082930	14.7118010
93.0599270	2.5552669
89.0905010	-18.4499950
-24.7958730	-29.3928780
18.3419460	59.8346210
78.0471340	-4.4779855
36.0453840	20.5724080
33.6425670	-45.7565730
46.8202540	34.6353140
-1.1173211	31.2959270
87.5055370	-8.0762623
-24.2921540	-10.3354260
23.9824510	56.3201050
45.9890640	15.9977760
29.4604560	-29.6747770
61.1331100	30.4128460
56.5316700	22.5220800
95.9093640	-25.2887610
63.7050550	41.7007700
76.2641950	-27.3609330
88.6597520	1.7541403
67.4272470	38.3462060
7.1195293	-46.3107270
-24.0725500	-42.7679080
95.7526080	-63.8526590
-17.4089760	11.8499060
16.6553830	15.8690260
27.8742380	-43.9404460
-29.4096850	-22.7344570
79.0045040	38.9354110
30.8269210	-38.6473740
10.7298100	40.5750540
60.7442910	-7.2514253
-15.6189420	-12.8185070
-15.5316720	-42.9805930
-1.5670502	31.0210460
4.6664610	-33.3639990
-1.0580970	11.7341330
-6.1236214	21.5648750
-11.0450790	-56.1230460
1.6169934	-28.1154110
37.4648430	-9.9651415
11.0714060	-35.2408500
3.9665535	29.4202320
54.7729890	-57.5787150
77.1471220	31.9224760
62.8311990	-34.3288890
31.5683120	10.8373000
49.0689780	-51.4078520
69.2108680	33.8271240
56.5079180	61.9400220
27.1925500	63.7100400
-3.0936482	-0.7093534
-24.5451630	-33.6267730
18.7766590	-58.5008040
4.2918100	27.3751180
83.3806640	17.6960700
6.0038955	26.4677370
-14.8575640	20.0202300
67.8974520	40.4813020
-3.4923466	-16.9957150
69.0128920	-34.1797720
5.5449324	28.7274170
61.1888880	-33.3043090
24.4070040	0.3392781
34.7919590	-39.4942520
16.4741080	-49.4273350
47.1690550	-49.2547880
9.3780889	-15.3082770
15.8931110	46.5885340
-31.6047160	59.4056640
-36.3743620	-47.3901950
43.4396730	34.9282180
51.8501700	36.1184060
72.5274100	48.7233880
6.1818716	16.4735660
-0.8319648	1.3621697
40.5057350	60.2832890
-6.1336234	23.3082790
-31.2276220	58.7580450
-32.0327370	-42.2190220
-2.7180975	-24.2725760
19.7978970	30.1809430
-1.0177723	17.0711570
23.3347260	-21.4489260
-32.8851170	-14.4272650
61.8088270	16.6197830
72.5771880	-22.0986880
12.9557980	-28.0778960
-24.1061000	-52.6285280
-36.3688810	25.2250540
-5.1067678	-45.8841350
8.3882454	20.3119760
59.2252400	-35.8664500
87.1041470	-2.9791916
77.0488190	-24.5129820
79.3059790	-32.1534280
5.4088196	-34.4077390
-19.1993950	13.9265090
24.1110490	-10.4652260
33.3276040	-14.9829660
22.6329830	-33.7667690
83.3729390	42.1672190
-5.5344812	11.3304090
-38.2735560	-62.1466330
78.3292180	6.9929521
-22.0426030	53.2226820
-7.3932364	36.5334100
-11.6441740	28.4471290
-29.9339770	3.9701501
62.2113160	-23.7007950
-11.6080940	-29.0071170
-30.9371400	29.6151690
85.5264930	-17.1938250
84.8844560	-62.0561740
30.2582880	46.6865420
74.8743480	-61.9327410
81.1128590	61.0403640
-0.9912761	-58.2969940
-7.0911807	2.6094000
-24.2927470	-6.3041122
43.8330960	33.6147850
-6.4903291	24.9608360
49.2312430	-19.0763710
48.8617980	35.2311500
80.3242290	-34.7518170
2.5194262	-15.6841260
-6.4190573	48.1919750
6.6624738	40.0190340
-37.8216670	-57.3861400
-5.9932292	-51.4009970
-11.5090720	38.1849000
-14.0920500	11.0822320
13.9211100	62.7456240
-14.7588120	-25.2095560
42.3791430	-28.8101780
57.3103850	-7.1066917
34.7399750	-58.0994960
-24.8150680	49.4254000
42.3969370	4.3889162
57.8509370	-7.1874001
52.4183470	-48.5378930
53.4422480	51.5872090
-36.6734950	-49.1996130
7.7811623	62.3566780
78.5084340	56.8936990
-27.5660840	13.1327200
-25.8316720	-8.9386420
35.7171970	-29.4338070
-33.4138460	63.4950640
-3.4702160	25.2559030
-34.5633830	56.5188190
-21.8351030	-16.6690230
16.4209560	-44.3813100
-28.0364110	15.8069510
28.5169290	-16.0172410
43.3284160	43.9339700
3.5409825	4.9859052
-39.6673990	25.4207190
33.0181010	-13.0523950
42.7419320	39.0531520
8.9909776	-37.8186940
23.3758220	-31.3455330
-19.2024180	54.1688660
32.8741110	47.1060730
18.3316270	23.3043670
-26.9406710	1.0082281
71.7519560	-30.5881630
73.4322400	48.0013930
-4.2656407	37.6593600
-14.2758440	-15.6865660
13.5004990	-61.6026450
62.8209380	-30.1541650
-29.9467340	-39.8197750
7.5934523	-8.1155936
5.8999012	-34.5773770
-1.9776892	3.7293030
-31.0425070	27.2191780
61.8284150	-6.8310733
5.3506585	59.5795090
15.5111830	40.3515550
73.4670920	-2.6511397
70.1118440	-48.5781320
-23.0840870	-46.2401880
56.5273200	15.7497470
-24.4470760	51.1679910
-18.3103020	32.7776040
18.0799740	-18.3975780
-12.5494990	-8.6580777
21.6224960	1.7580330
-14.9710750	8.0655917
6.5509337	-31.6212180
54.3032790	-8.2403649
54.1579230	37.6355210
-22.4578920	-8.7525597
55.9884190	-52.4302010
-30.7698830	-22.7799600
71.4531230	-8.3506221
13.3051640	17.7344620
39.1698770	-40.6326990
24.3082540	38.3676620
-15.1508560	-30.9602920
20.7070290	-49.3570980
42.0947860	29.9025380
15.0323520	25.6174280
-4.9629567	-24.7380010
19.5526260	-18.4336990
-37.1563650	32.7759680
-40.0970760	-51.1645750
57.5307920	-29.1982620
10.5923940	-6.0051807
26.9852010	-63.3944550
-27.6117120	41.5751860
67.3117920	37.6585150
21.5165230	45.3069400
-1.1559344	-33.2535490
15.8820360	-39.2065090
-3.5589638	1.8602922
54.7527200	45.4072390
23.8847380	-52.7412420
-14.8139830	50.1319890
72.1677250	26.2533020
-49.3001050	-51.2431950
-7.3782837	-58.1133470
29.1222310	60.4179150
7.2653250	-21.9115750
20.7553940	-41.2457480
-0.6515548	-62.8813540
50.9580030	-6.3824886
-44.3710610	40.9968970
29.2906880	40.7380220
61.7733580	-9.7182848
-29.4302630	-0.3367233
19.1362700	-27.5447100
-49.4256250	-60.7372180
55.0343730	33.0726230
71.9923790	-23.4002280
-49.6675850	63.3729580
-34.5935810	62.1677200
35.4650150	56.3317960
35.6924060	-64.0368710
75.3888930	12.3204920
13.4599810	49.4108980
-30.5663450	-45.1505930
-46.3648960	-7.0635698
-41.3564230	-39.3110700
-40.7518120	21.8642990
-34.9008460	8.5279020
-16.6110590	-37.7095460
-10.2356400	-56.8023640
-28.0414910	-27.0993180
0.9862514	-31.1567170
40.5686940	43.6566880
40.4751230	32.9657370
9.4452235	-55.5202740
-39.8304420	29.6345250
5.9917744	53.6602590
47.7987300	5.7934425
35.6307790	-62.9744690
60.9739580	-36.0875820
68.5761310	-25.4938050
-47.9540130	19.5695490
23.0456120	-11.0453830
69.2933250	16.7851220
48.5056310	58.4790830
-49.4917060	-32.1986660
-2.0905072	-4.0112903
-17.4781680	3.0883313
63.1507780	-37.7101270
12.0091500	61.1520830
26.3648150	-25.1694520
-35.0462770	32.7186530
74.7358630	-17.7922310
2.4486902	-63.8038510
-31.2381770	-42.4687820
48.2022100	-25.4574020
-43.9468600	45.4148830
-40.1340330	-35.7331440
-8.9286088	-13.6305660
50.3623610	-44.0481540
54.8665990	-39.8734520
70.8738450	30.8383000
-29.7987200	-30.9213450
60.0637400	15.9598170
-49.6798040	-17.9454960
71.0536750	18.0241990
49.2839640	40.2199320
-7.1985561	2.9680058
71.1663230	-13.8380420
-39.4293110	-53.5950800
-6.7333497	46.2181180
7.2833803	-50.0572750
24.8012380	-5.5178440
38.1831660	4.4930863
17.7932260	-33.0060950
-36.1337520	58.3087270
-22.4510380	-2.7654313
34.3448600	30.5203700
-35.8767450	-5.8580559
-19.2931570	-19.2094400
-41.8731550	-39.7960050
-48.2136770	-63.6527650
-40.8271050	62.9885460
-34.9773160	-14.1644930
-38.5293850	8.1405272
25.2667020	54.2895280
-26.0439320	-54.7645770
22.5182540	42.8137960
50.8527530	51.4351820
66.8839180	-41.7093150
-43.7811300	2.9980542
-50.9157000	41.3051200
53.3558060	29.8388580
-10.9711200	57.5781030
54.2170130	-54.1857410
28.4540900	33.4101910
50.4331270	17.5152760
42.1528960	16.1477810
-43.3922280	61.8677570
24.4852260	44.1730920
24.8307970	58.0832550
7.9364401	63.3778820
28.7578910	-17.8206930
7.0062159	58.1133160
0.5371364	-28.3475200
20.6314070	24.5056470
48.0104120	-18.5798160
66.1214370	37.5756960
-22.9492520	6.3988606
-53.6718760	38.4304120
52.3398750	19.0225790
53.7064820	1.0930299
56.1047240	-61.0061070
16.3514700	40.8028900
49.1182610	12.3475510
70.4384800	63.5945420
-54.8814550	8.4003338
-6.3310804	-45.5010530
-8.6979413	-60.1749310
-17.7060720	-26.3260820
-33.3653100	36.4121200
25.2878410	53.3668050
3.3262021	11.1652840
-36.6205110	-35.3044480
-35.3128890	18.5146640
68.0318420	18.9692750
-32.2353010	-0.5659106
0.2988869	-12.0781630
54.0283040	58.8816510
28.9892450	-27.5774180
-46.9187730	-14.5558400
-34.4125550	-57.8099480
-45.5076190	-12.4758780
60.4268960	-0.8302641
-0.5822619	-27.8785710
33.4359930	-50.0565540
-29.8067020	-5.5192924
55.6374180	49.8863600
-48.9917780	43.7652970
-28.0027930	12.0250320
-48.0956230	-20.2060490
55.4523850	-28.8392290
56.5913390	38.3642890
60.8613710	-1.8500627
60.2961200	-31.8424020
-25.8613570	-62.2029310
52.6177440	-16.9834930
-8.0165131	-53.0962160
50.0990590	57.4884680
53.6928650	-7.7309238
9.6993569	35.0460000
-45.0243870	19.3507770
-35.1385740	-10.4864930
-38.2119980	-17.0608860
-44.7919340	28.2161470
22.9123830	-14.1503830
69.5025720	53.8199850
-3.5111454	38.4223330
66.6484320	50.0303960
-45.1495090	36.9526260
69.9079590	11.7419010
-34.9380660	-3.7777883
20.4033610	20.7499470
54.0619880	-49.6761000
-24.4389950	-39.8645520
63.4045610	23.2896160
7.0209314	-21.0517560
54.5903080	-22.3668160
25.1728640	22.0283070
-28.4687570	-48.3110020
20.8661470	37.0984370
-35.0138260	58.8572760
58.4203490	-0.1186353
4.2215963	37.1747990
32.4570950	2.0328481
-28.8513740	48.7057660
64.6552130	9.8307288
-50.4253750	56.8862240
64.5126530	-13.8198390
53.2736130	-13.4783460
22.2777410	32.2510930
-49.1135300	-8.8210288
54.5496220	-55.3879260
-53.8807690	-52.4007040
9.2572643	-42.9659080
27.0166340	24.8909900
13.6494000	63.4007290
-43.5681490	-22.0869740
-8.9481983	8.8865224
-53.6839650	30.3213500
-9.3308839	-7.6961171
16.7699890	-35.9382190
19.3080100	-57.4396840
18.6948770	11.1402420
23.8162890	-62.0173550
-38.9220980	-14.6858410
30.3471080	17.9688190
60.9289980	-18.5368370
1.3866781	51.2994700
43.6469820	33.6460290
-56.7711310	13.7005620
-56.5056190	50.5514580
-20.1541620	-59.9318910
66.5292090	-10.8865580
68.9691910	52.1627160
45.8808690	-49.7993570
6.2918006	-2.9347485
38.6092300	24.0477580
-30.8511900	-47.0373900
5.0529119	-56.3731300
-51.8460080	27.4321720
40.9173260	-54.6695130
46.7508270	-1.3905092
13.2214270	38.0655610
30.2829810	-40.3130830
7.2095268	21.4939440
-44.5561400	53.0595840
26.3701410	-53.1258560
-29.8309080	39.8411940
-25.1006030	40.8114510
-30.2515280	13.6233740
-27.3355490	-10.4436810
-17.7633610	47.2457190
-53.3741890	-38.8200700
-15.7926080	46.8961740
16.7854200	-3.1166792
26.4802670	-45.3923210
47.4038840	-47.3798730
55.8526340	37.2789340
-29.7168060	38.0287310
-38.7277840	-9.9136991
-57.1958440	28.6892160
-13.1087960	37.3699140
-20.6139850	-7.4661768
40.8145650	-27.2647120
59.5704090	59.8833430
-21.7790390	5.7854904
-57.6802860	14.2453340
13.8775240	40.2383100
-37.9935960	-63.1776880
-9.6767907	34.9517550
56.3519870	38.8625850
-40.1890940	-22.6494110
22.7917820	-12.2322510
-5.0092266	29.1643950
-15.7487320	-53.8775270
-7.3059621	8.2972636
-47.1176140	5.9368640
-42.0391950	-33.4521500
-30.3412840	-10.2589990
43.6117850	-52.4434090
40.7411610	-15.9302400
22.2369410	-22.4461210
57.1205390	-25.6902210
-20.3508480	-64.1514580
-35.4200100	-31.3751300
-9.8638205	34.6196840
46.9385480	3.7136898
28.4426360	31.9363060
47.6520050	24.6457810
-37.7448610	24.8191600
50.0960210	13.1446630
7.3712470	7.6662545
22.3526970	46.6359520
26.0938990	20.4976090
28.7013490	18.5924430
-43.2130100	-23.5597430
49.3870260	-0.5192685
54.2466340	15.4154900
9.3588267	32.4906300
-1.5903604	57.2243900
-39.8484890	-62.4870970
-25.0115340	53.5045360
61.2112500	58.1601160
42.2007860	-8.7170596
60.3849980	56.7006490
44.8188990	41.1967690
-36.7931600	37.7083580
-44.5943650	22.4514070
-19.9387180	32.9250750
-14.8833710	44.4493130
36.5755010	-48.9271300
54.4736530	2.1767209
-42.3523990	25.4906750
32.4468930	21.5738700
-47.8735120	10.2719620
49.1478710	23.8425570
47.6952900	16.5671920
-29.1394260	48.4580600
8.0137780	52.0296300
-5.2316533	44.5670110
30.5212390	-28.5022260
7.1529094	33.3310740
32.1382900	-38.8670510
57.5905080	27.8694590
-31.9112310	-36.3089300
-31.5020830	45.3363170
-2.7738849	50.1007510
6.4921679	43.2404400
-6.2055449	-6.7485156
58.5637920	14.0570700
62.5851800	-4.2258820
9.5596153	13.3515180
-14.3838860	12.8456090
2.3548696	-20.4506860
33.2150510	11.8809980
-40.2830160	33.1345490
-10.6553090	26.9549170
