jMRUI Data Textfile

Filename: dataset20_nWS.txt

PointsInDataset: 2048      
DatasetsInFile: 1         
SamplingInterval: 2.5E-1    
ZeroOrderPhase: 0E0       
BeginTime: 0E0       
TransmitterFrequency: 1.2322E8  
MagneticField: 2.9E0     
TypeOfNucleus: 0E0       
NameOfPatient: dataset20_nWS
DateOfExperiment: 
Spectrometer: 
AdditionalInfo: dataset20_nWS
SignalNames: dataset20_nWS.txt;


Signal and FFT
sig(real)	sig(imag)	fft(real)	fft(imag)
Signal 1 out of 1 in file
49888.8250000	38.8083390
49694.2010000	35.5341640
49441.1210000	34.3055460
49275.4290000	-32.8195200
49030.3650000	33.2725140
48756.0100000	-34.8967550
48570.7990000	-18.7078700
48331.6550000	-37.6438550
48126.5590000	-45.8698880
47819.9180000	36.1556020
47623.5180000	-20.7483930
47432.4520000	42.7937370
47150.1870000	5.6914769
46943.8440000	2.1608354
46730.5530000	-26.4961460
46496.7160000	-27.6490140
46322.5850000	-9.7480430
46079.5240000	35.9180470
45900.6490000	-19.1037670
45678.0290000	17.2364960
45418.8400000	-10.5042940
45255.1480000	-34.3036790
45035.7350000	-16.9049100
44848.2040000	16.3463540
44553.1920000	30.1547210
44403.0400000	16.8725680
44156.6970000	4.4174677
43971.1780000	-3.2274124
43783.4580000	38.8509860
43557.1720000	-37.2879100
43309.9730000	-3.9520959
43139.8180000	21.3097330
42926.5240000	22.3380720
42754.8030000	7.2494173
42503.9080000	8.8730484
42369.6610000	-29.5959200
42119.5350000	9.8157955
41923.8320000	7.4841588
41711.8210000	-28.5314050
41568.2820000	16.3240620
41320.7370000	45.3347340
41179.5440000	-4.2276934
40994.7860000	36.0931020
40788.2110000	-17.1586800
40539.6420000	-12.3784630
40397.4320000	-33.9956090
40223.8630000	21.3106730
40009.6810000	16.3435770
39859.3850000	8.8964033
39603.7980000	24.3021740
39478.2210000	0.1755184
39278.3640000	-40.0109990
39088.5660000	-21.9626450
38855.6270000	-7.2301845
38752.4910000	-31.7267450
38534.2890000	9.2871792
38382.2810000	-36.8939630
38157.9820000	14.9558270
38004.6500000	-10.1444330
37847.9200000	-24.2886510
37670.2440000	-35.0285100
37493.2700000	43.8384480
37317.3190000	19.3077020
37128.1540000	-33.8185600
36977.2900000	-27.7667420
36763.1590000	2.1798323
36608.3680000	-43.5374460
36396.1070000	6.0645786
36256.7610000	9.4058548
36045.7890000	31.8936460
35856.3230000	-14.2301570
35761.9470000	-40.8736760
35597.5420000	-33.9204410
35400.2350000	40.6039020
35238.3160000	-22.0292000
35096.9020000	14.0802850
34903.5360000	27.7239330
34749.7530000	20.9349550
34554.5940000	16.5289020
34441.7710000	-13.4933170
34226.8400000	24.3975790
34081.9470000	18.7257650
33968.4310000	25.8144440
33730.7830000	-9.4733699
33630.7520000	-21.2889450
33468.0110000	-3.9987351
33279.4420000	-36.6607740
33133.9050000	-44.8673140
32972.5280000	-43.7519130
32805.0030000	-16.7462770
32683.0430000	1.4923769
32559.1460000	5.4647142
32386.1560000	-13.5335180
32180.6810000	-0.4644605
32044.6290000	-22.3109960
31909.6090000	30.4573060
31797.8370000	-29.9041520
31651.9220000	-1.2656734
31439.9750000	14.4387630
31326.7110000	25.6504790
31183.6520000	-34.7572870
31058.1370000	46.6021580
30902.4600000	-21.8907920
30688.1540000	-13.1933340
30540.8170000	-4.7335037
30453.8190000	23.7320450
30275.6560000	20.1309310
30160.3690000	-39.7570720
29977.2830000	43.2832590
29834.2080000	17.2939570
29692.0540000	-40.5431270
29621.1890000	33.0836650
29457.4430000	20.4028960
29310.6050000	-22.1254160
29159.8740000	-14.9317760
29046.6370000	-15.1792810
28927.9720000	-40.5330210
28799.1490000	-26.4066070
28660.9510000	-1.6687846
28498.1710000	-19.2352620
28344.8170000	30.4984760
28215.3740000	32.0309910
28110.3160000	29.3170770
27924.5900000	-41.5242560
27875.3840000	31.6938670
27705.7120000	-2.6283662
27537.5980000	8.6742695
27405.0240000	22.2205270
27289.7160000	12.0248160
27177.0450000	28.3501870
27094.6400000	-7.2876016
26941.8350000	42.3435760
26834.7380000	-9.2522887
26664.9530000	31.2807160
26517.0270000	42.0741940
26468.6340000	11.2040180
26283.0460000	-41.4977690
26135.7960000	20.1042160
26031.1020000	-26.1829830
25941.8900000	-43.3199450
25778.1200000	46.9333270
25712.5030000	8.5892140
25551.5310000	41.8231380
25472.1300000	43.8283250
25315.8170000	-32.0655540
25229.2280000	0.4481586
25137.6390000	-16.5305300
25002.7560000	30.7707650
24829.7620000	-11.4933840
24779.0550000	41.3942950
24607.8110000	27.5445940
24510.1520000	-33.4993120
24390.8520000	20.1142180
24301.9560000	11.2655810
24203.6410000	29.1275570
24043.4710000	10.3334500
23941.1740000	3.1670214
23817.7790000	15.7864330
23715.7320000	32.7060940
23573.0130000	-37.4271960
23510.9220000	-9.5662663
23419.0590000	15.0244990
23243.5400000	-27.7402280
23124.3570000	-10.9575690
23071.0500000	26.7107940
22923.8210000	-19.5035260
22854.8990000	-39.2820770
22691.6480000	35.4122370
22619.1940000	11.5775350
22544.4790000	6.1708044
22391.6030000	-46.5366970
22320.6700000	18.6065500
22236.8320000	20.2507790
22059.3180000	22.8840720
21970.0970000	-36.6984860
21926.7700000	-34.2931230
21806.1310000	24.1823080
21668.7470000	-41.9766890
21535.6820000	-29.6600120
21513.5990000	19.1929270
21404.3890000	-11.4188800
21242.5730000	-9.0055343
21168.2240000	-30.3735320
21113.5960000	-14.3088960
20949.2800000	35.9000760
20874.7520000	32.2650880
20760.2060000	-2.4126569
20679.4830000	21.8747350
20631.0410000	16.2928800
20536.3510000	-29.7547240
20366.6600000	-15.0895110
20274.6940000	8.4451276
20226.1680000	41.5509610
20076.1430000	41.0489500
19993.4460000	22.3750080
19954.1820000	46.1382910
19788.4100000	-32.8772710
19736.1790000	38.2088740
19650.7590000	9.3422242
19581.0840000	8.4671728
19477.0230000	37.6871080
19335.6530000	-26.8630600
19316.3260000	29.9071680
19161.1990000	-42.1815300
19104.6900000	-21.6018850
18994.7250000	12.8422790
18943.4460000	-20.0351050
18803.8860000	-31.2644720
18774.8940000	-6.7288608
18682.5050000	-4.6994098
18539.2930000	35.9620200
18459.6160000	-20.3338680
18354.3070000	-28.7540140
18322.1530000	-39.8118510
18186.9190000	-41.0517480
18127.5890000	-12.3090460
18019.9830000	16.0297380
17982.2870000	-20.9611540
17852.6070000	32.4181920
17817.9580000	-8.8503597
17674.6930000	33.1369120
17650.0450000	-23.9628800
17565.3110000	-7.6492761
17427.5210000	-40.2685020
17379.1370000	-31.4852480
17304.5980000	9.3753232
17246.3010000	36.0827650
17154.0920000	-34.7524210
17068.9700000	20.7044450
16955.1850000	25.7603710
16892.6900000	35.1492930
16792.7410000	-7.5298422
16773.5620000	-41.2670090
16678.6880000	-15.2895940
16614.1930000	-8.3488777
16509.1750000	3.3610076
16419.4750000	11.7146290
16342.2900000	20.4783690
16287.6590000	28.4577670
16202.2250000	8.7153796
16147.6560000	-18.8586150
15994.5910000	46.3054910
15937.4450000	7.2456950
15897.7070000	-46.6091390
15797.6310000	38.2635050
15777.4770000	-41.4686590
15633.2560000	-8.5979050
15624.9740000	13.3359320
15558.8760000	-43.7889800
15488.2410000	6.4303062
15354.3320000	23.7234270
15291.9070000	38.4808530
15203.2130000	-14.0587420
15166.8380000	32.7927810
15080.1050000	-1.8761793
15041.9200000	-0.8457304
14914.4380000	-34.5546170
14881.4690000	-16.2216180
14802.7310000	-0.4728220
14724.5920000	-21.4156630
14687.5060000	36.5574460
14614.7630000	44.0590070
14547.4080000	38.5923680
14438.0960000	25.4248700
14411.4600000	-36.6537540
14280.4080000	11.4483340
14268.8410000	-21.2527810
14142.5010000	-44.7675740
14138.0240000	4.0844785
14032.9470000	-28.3759930
14019.4130000	41.2330970
13962.7340000	18.5780510
13868.1470000	-3.4166569
13816.7610000	-21.5602870
13691.8730000	-5.7138752
13676.5330000	-26.2179560
13624.0780000	41.2087400
13539.6830000	-0.4417884
13435.7640000	-11.4861250
13451.4970000	39.8989220
13354.2270000	13.5399470
13282.7560000	11.6943290
13231.4150000	-17.2974530
13192.7070000	2.6657355
13138.7350000	21.5897660
13011.6470000	38.7455780
13015.0160000	-2.8103884
12950.4280000	28.2338050
12833.7570000	11.9349430
12765.7590000	-34.4647610
12744.0650000	12.0854050
12671.8350000	11.8054760
12582.4530000	16.1459360
12534.5520000	6.3976369
12516.0300000	-35.0455680
12429.9300000	-6.9643573
12339.3620000	28.3064560
12338.9720000	39.1524980
12262.7870000	-27.3315100
12180.9330000	-1.6456673
12162.9460000	-23.3897850
12086.4470000	-38.1740830
12042.5570000	0.0342395
11973.1360000	9.9172749
11949.2520000	37.2129630
11824.2730000	-26.0338830
11765.9440000	-8.4772300
11782.3390000	-45.8080190
11711.8160000	-32.0050800
11618.7030000	41.7753220
11605.3930000	-7.4825214
11571.7490000	-11.1950270
11511.9320000	-14.7902460
11438.3280000	-1.4338564
11411.4430000	34.8026800
11340.9650000	30.9709000
11253.6830000	20.2284130
11201.1950000	-44.6474100
11160.5960000	20.2077750
11135.0790000	-9.0817567
11095.8690000	-38.9135960
11038.9370000	-2.7952519
10953.0670000	33.9803540
10895.1920000	-36.8246460
10884.6880000	-26.1014030
10837.9460000	-25.3326890
10702.0050000	-1.1307657
10650.6010000	18.0454380
10657.0040000	-3.8180859
10547.2000000	29.8713400
10506.5990000	30.4239790
10516.9910000	-32.5830320
10439.5170000	-3.7448676
10426.7910000	4.5762015
10360.7880000	45.4895450
10316.8250000	-37.9101730
10254.4420000	10.5815320
10242.8370000	-23.0699360
10179.5700000	16.6286320
10106.7460000	-36.7761580
10054.8850000	43.6775390
10015.0150000	27.2774860
9955.0974000	-0.0251656
9881.3567000	23.2000540
9852.8137000	31.3085560
9848.0475000	22.7244220
9780.7992000	7.9314836
9772.8642000	-33.5796310
9709.2476000	-39.6657860
9646.9258000	-39.0060160
9596.5427000	33.1317450
9584.5220000	0.7817514
9533.8235000	39.1946270
9473.4644000	11.7336960
9380.2039000	-20.6016460
9326.2489000	-3.6371850
9374.1671000	-39.5429950
9284.3965000	-20.3722490
9257.6834000	-38.7350670
9164.6440000	25.6791740
9118.9332000	-42.6684670
9126.8581000	-20.4098370
9024.5824000	41.9997590
8990.5113000	9.0962130
8944.2555000	20.6175200
8947.3710000	-12.8268060
8931.5486000	-5.6279704
8844.4643000	35.3964630
8818.1448000	-36.2527140
8732.3982000	-6.8411511
8767.0779000	44.9895230
8733.7411000	18.3779370
8666.1712000	42.5255150
8600.7013000	24.6493020
8539.6698000	21.4203260
8570.9797000	-8.9003993
8518.2808000	13.8574460
8405.0734000	-43.0421180
8415.0516000	7.7098997
8334.0019000	43.6219480
8300.7656000	14.5437290
8286.7302000	-18.5211700
8235.7777000	-34.5383200
8247.8032000	-18.2221280
8139.1004000	-41.1856570
8158.6252000	-26.8963120
8084.3477000	-30.1202050
8073.4504000	-42.2990900
8015.7261000	42.2140760
7948.5438000	36.2121770
7954.3469000	-23.9869840
7903.5750000	1.3182592
7837.5612000	-22.6291950
7863.1875000	41.7972000
7823.1849000	3.7903619
7773.1275000	45.6554670
7714.2376000	-4.7141781
7702.6662000	-22.7781680
7686.5255000	3.0203786
7648.9443000	8.0385606
7568.8077000	-40.6690940
7585.2941000	37.0581240
7487.2595000	1.3364341
7518.2824000	18.3332540
7460.0594000	-6.6950562
7388.4699000	-40.9584290
7341.6732000	29.9462640
7301.9123000	39.4712800
7344.6457000	19.8493660
7223.6008000	24.7931570
7212.6294000	21.8246600
7189.7991000	-4.0420847
7132.9455000	11.4561650
7145.9139000	18.0592020
7119.0433000	1.2536467
7087.6461000	1.9852430
7068.0654000	2.0853024
6985.1773000	-6.5976514
6939.1594000	4.9368011
6936.7857000	24.1672150
6879.4945000	-14.1637810
6848.1592000	7.5385273
6801.0159000	-14.5965070
6773.8051000	19.0867350
6746.4689000	-10.2593620
6752.6089000	-27.2181090
6675.9234000	20.6161290
6697.9732000	46.2338150
6683.4465000	34.5352350
6649.7701000	-21.1101470
6586.9240000	-30.3112000
6525.1026000	-7.1548381
6515.4775000	-3.7119025
6479.1759000	7.2482087
6478.1384000	41.6067360
6401.5560000	9.6000049
6374.4630000	-44.2213950
6401.9732000	42.0329730
6313.8440000	-28.3394800
6274.8566000	21.3573470
6312.3934000	-17.2012390
6215.4019000	6.2004590
6255.9215000	5.7705060
6206.0069000	-1.5247048
6185.2961000	21.9984130
6126.1011000	-39.9934880
6146.6055000	29.2032350
6105.5218000	-29.5174050
6066.3542000	-46.5974230
5973.5488000	-9.5401140
5996.3161000	44.9051010
5937.6019000	38.7594330
5911.4660000	-14.5778220
5876.4762000	-30.2333240
5894.4454000	-18.7780750
5883.5437000	11.0774170
5813.4795000	-30.8080630
5785.9159000	23.9864610
5760.0846000	37.1206590
5741.7447000	-24.4014260
5688.9859000	-41.2577370
5640.8830000	-1.5641702
5627.3657000	8.2975548
5600.0690000	42.3679460
5637.6583000	8.9708856
5555.0381000	31.7910230
5592.9001000	0.0216920
5493.5016000	-26.5085740
5544.2091000	-20.4431330
5476.4451000	-31.2031840
5420.0698000	-26.0126580
5396.2793000	-46.0619520
5360.2724000	34.4195720
5368.1256000	-36.9460020
5340.7844000	33.4533750
5349.0896000	33.1820940
5293.9630000	10.1546880
5280.0301000	-45.4067470
5279.3399000	44.3768160
5223.8280000	22.2778060
5211.1333000	42.1523310
5134.5016000	-2.6467378
5111.7018000	-29.9015950
5105.8041000	-27.6797650
5058.1488000	16.9693050
5057.6410000	-27.2196100
5018.5847000	0.4137355
5039.0200000	42.6305150
5050.6961000	7.7715891
4967.7155000	19.5013340
4949.9019000	4.9081257
4922.3358000	-19.9099740
4933.4368000	-38.1529290
4907.6475000	25.0642400
4866.6872000	-36.8390510
4864.1102000	44.3506910
4855.2954000	7.0301121
4821.4745000	-1.1176401
4760.8646000	0.8767825
4753.7922000	30.5442530
4733.9956000	26.5945150
4689.9368000	-22.9737470
4712.9365000	13.3346220
4689.5890000	17.9199850
4634.1049000	0.7463839
4652.3614000	3.9145030
4575.7167000	29.1728490
4565.9809000	-42.2796410
4529.6268000	43.6589430
4521.5409000	-15.4325350
4545.5309000	12.6270680
4522.6485000	-2.4316008
4464.8589000	-27.8041650
4473.7850000	-4.7346756
4393.5479000	43.9295900
4395.7346000	19.9192390
4373.3321000	15.7987950
4372.3736000	37.5926430
4314.8594000	-34.7200510
4366.4667000	-21.1834640
4290.0714000	5.7820526
4283.4977000	-15.1613200
4295.6393000	19.4282350
4263.7561000	1.0906536
4247.8531000	-9.0580979
4166.7551000	7.5117916
4160.9554000	-5.1982240
4165.0875000	9.9301936
4144.3850000	-10.4182020
4167.4156000	14.4957820
4103.7504000	6.6464709
4078.4152000	-36.1477520
4083.9676000	36.7758060
4078.8705000	24.3782170
4044.2052000	-7.2385569
3987.7226000	13.9301360
3988.6082000	11.7368290
3955.2426000	12.1839640
3937.2195000	-3.6767120
3924.6358000	43.4489420
3935.1919000	-37.6367500
3915.0722000	-43.8029310
3910.3172000	38.7232080
3835.7338000	42.1523320
3868.2952000	-27.0600110
3822.3493000	-17.3176510
3820.9238000	18.8043380
3808.0910000	28.9083320
3728.3042000	31.6312840
3721.8541000	-37.9303940
3710.6831000	37.6695910
3696.4904000	-23.5693850
3688.2041000	-26.8072120
3682.2899000	-31.2495690
3686.7707000	-33.4483950
3634.9918000	19.1127290
3649.1965000	45.5997420
3606.7885000	32.6375920
3644.7453000	16.5826440
3573.5794000	-35.5697800
3550.2168000	28.2864210
3549.5732000	28.2267150
3495.0969000	-8.6164072
3508.8981000	-38.0194820
3476.5312000	-10.2266280
3528.1527000	4.7189160
3481.9403000	-9.5636570
3488.4776000	-38.7049450
3420.5613000	34.4890800
3457.6669000	-31.5533790
3396.5190000	35.8700230
3354.1113000	-16.9788510
3375.5040000	26.4239980
3328.4202000	-2.8278689
3349.3543000	-12.9721550
3325.3741000	33.6807150
3272.8153000	30.6634910
3329.3465000	-29.2157010
3288.9873000	2.0231630
3302.0234000	26.7552500
3211.3252000	-42.0721800
3216.0071000	35.0507520
3175.0281000	-9.3191970
3210.8325000	30.5404590
3220.6957000	39.9208650
3164.3433000	-41.6669640
3135.0412000	31.5283930
3107.1029000	-30.0337770
3106.9134000	20.1844920
3074.1466000	-2.5456505
3122.0393000	-17.3086420
3108.4746000	-46.2501260
3024.8418000	-8.6371167
3015.3562000	2.7098034
2994.5763000	35.7705830
3000.4486000	-15.9737680
3009.5111000	-2.4570714
2985.6894000	-45.7840610
3009.1441000	-7.4711954
2949.7640000	4.3252658
2973.8517000	-32.4441440
2924.0948000	-10.0346380
2906.9237000	7.6799005
2874.8703000	26.4439140
2890.6475000	38.3077800
2872.1124000	46.8309840
2909.0695000	11.0096780
2823.7421000	-34.9961790
2883.6367000	-2.0694363
2858.5056000	4.8360088
2861.9205000	21.0472680
2816.9742000	36.6199550
2752.4779000	13.2039230
2734.1149000	-34.2387960
2764.2954000	-13.4258470
2771.1574000	36.4483680
2743.8042000	-39.1219670
2702.0254000	-4.0027832
2696.0198000	7.9938935
2735.2648000	-32.6303820
2649.2395000	-23.7555500
2704.0999000	-3.7972163
2661.6837000	-0.8830363
2645.6996000	39.4497260
2679.9832000	30.1253800
2647.8327000	-31.3245030
2604.9772000	-0.6040550
2567.9201000	9.3135437
2602.8190000	32.1751680
2575.7293000	-1.1677303
2520.1142000	-29.9190720
2554.6084000	32.8362450
2587.6256000	23.4149340
2575.3380000	35.7235290
2507.5202000	-22.7720460
2483.2959000	27.4147570
2520.9532000	-42.9429470
2468.6040000	33.0682590
2503.1803000	37.2683160
2500.6931000	-28.6688190
2446.4446000	18.8628530
2461.5513000	-7.3125895
2383.6319000	0.3471468
2404.7574000	38.5003650
2365.6376000	0.6541229
2358.3014000	12.0262700
2414.5880000	-8.5218025
2373.6860000	5.7408180
2339.4906000	-17.4995770
2316.2669000	-33.1845760
2371.9806000	1.3165006
2346.8635000	25.8119760
2347.0471000	15.2381510
2311.9678000	-4.9160536
2308.4521000	-44.7371220
2292.2928000	8.8685620
2258.1718000	-5.2913469
2232.9405000	13.3477020
2280.2165000	6.1195561
2219.6551000	44.5479570
2272.6392000	-35.7988460
2215.0362000	17.2753850
2182.2378000	-46.5779920
2237.4968000	-18.5053740
2203.1391000	18.2798330
2200.8100000	43.6526760
2128.1553000	43.5964070
2123.9609000	-26.1412120
2169.2878000	9.7879882
2161.1986000	-45.9454250
2170.7072000	35.5274240
2118.0169000	31.1188520
2141.2937000	46.8281250
2080.9838000	25.1442850
2056.3790000	-42.3143210
2043.9535000	-37.0607410
2100.4422000	-24.9075280
2077.1851000	-7.2984469
2053.2175000	-39.1800980
2062.2433000	18.4398770
1986.2581000	37.7460410
2058.8995000	-0.9106484
2027.1632000	24.4551810
2002.2321000	14.6626630
1988.7767000	27.0140890
2011.5693000	-43.3452170
2003.5287000	28.3049390
1990.9233000	-21.5741340
1945.0034000	-21.2681670
1981.4524000	-21.3578590
1893.7742000	0.1344053
1880.1742000	-41.0207950
1923.0416000	-21.5530710
1915.3281000	-0.2451290
1853.6772000	-9.2185387
1867.6046000	-11.8838140
1836.6424000	18.6330010
1824.6080000	11.6486320
1865.3487000	-5.5355981
1897.2547000	-41.0814900
1824.1386000	-28.6740500
1812.2048000	3.0524469
1838.6534000	-5.8323673
1840.4078000	-34.2050040
1843.4707000	43.2596220
1789.0709000	-28.0946520
1753.2454000	-27.5089460
1762.3703000	18.5556170
1818.9789000	-40.2193760
1722.5264000	32.1992060
1745.5547000	32.4146190
1726.9079000	23.6133100
1750.7692000	21.4752450
1713.4211000	-12.4892310
1724.2516000	-9.7914983
1701.6564000	-21.2250230
1750.4419000	-1.1282177
1704.8457000	-45.7734130
1650.5421000	-28.5307430
1732.1859000	40.3114300
1705.2347000	22.0277380
1663.7635000	26.8986910
1665.3368000	-22.6493480
1669.2502000	-43.1905680
1661.6911000	45.1529040
1679.1263000	27.7152650
1606.8129000	31.4483020
1617.2017000	43.4628130
1619.3007000	11.0715670
1577.9118000	13.5087410
1555.0935000	-5.6218945
1635.5279000	-7.2063562
1539.5413000	11.7601110
1589.5610000	-36.1529400
1563.8968000	39.0016860
1610.2272000	33.0488390
1569.7002000	17.7963200
1528.5817000	-3.1317006
1497.5818000	14.9997930
1541.5021000	-16.5464770
1552.0790000	-46.1310280
1526.5496000	14.6886480
1532.9742000	2.7809900
1531.7498000	12.2316630
1537.8969000	-23.0078400
1457.8310000	45.0099500
1498.3907000	44.1120970
1485.3747000	-2.1663686
1504.1516000	-28.6167620
1453.4226000	-13.0902570
1441.7991000	10.0468750
1434.4905000	-20.7719330
1417.9690000	-19.3251700
1425.2909000	-5.2788537
1431.7205000	-13.4660200
1384.4259000	44.6064580
1439.0754000	2.4585616
1416.1719000	-22.3281990
1445.3790000	-22.4345700
1443.2766000	6.8738996
1357.3592000	-36.6765150
1385.7985000	31.0710970
1408.5093000	8.4494118
1383.7409000	-7.5414085
1332.1771000	32.8165150
1358.0596000	-11.8139550
1352.7614000	-43.3827280
1333.1349000	-10.4233730
1342.8904000	-24.1796210
1324.2635000	5.6196892
1341.2754000	6.2906697
1353.9453000	-45.4350550
1320.3485000	-20.6959280
1319.7604000	-46.3838930
1322.6218000	-2.2882050
1333.4800000	7.5392315
1310.5009000	25.2594100
1258.0993000	31.5895980
1300.6396000	-46.3144330
1311.6573000	37.4202590
1245.9008000	12.4362310
1229.1072000	29.3569560
1221.7693000	-12.7158960
1277.7083000	17.2867650
1234.9037000	-30.5219480
1239.3549000	-4.6591755
1225.1528000	-17.4592020
1260.6988000	-22.5348570
1214.3339000	45.5865950
1195.9724000	-17.4582160
1167.5242000	-33.5396030
1161.6871000	-18.4666440
1208.1344000	-37.4392000
1222.7989000	10.2129620
1209.0204000	-16.5063380
1195.7850000	44.6340050
1206.5249000	27.0523270
1161.0294000	-30.3449720
1137.9591000	-5.2409220
1137.0602000	-14.8980630
1131.8001000	-40.2919390
1156.7971000	-14.7336310
1166.7357000	-28.8853640
1136.3751000	17.8077500
1126.1741000	26.7935370
1107.2615000	-11.3741280
1077.5747000	-4.5840166
1070.5691000	9.2104210
1092.0757000	3.4076767
1145.1055000	42.5171240
1076.5464000	-40.3281650
1104.7309000	-30.6284920
1120.2236000	16.7909900
1123.6627000	46.8201780
1062.2257000	-14.5871740
1080.7562000	-30.7010320
1112.4207000	37.1890110
1101.7480000	29.6254940
1063.7066000	-20.7491950
1015.5225000	-3.3419308
1082.9425000	40.2257980
1017.6512000	14.4575210
1025.3392000	14.4598140
999.7366300	-26.1842220
1038.0712000	-45.1502690
1047.0570000	-10.5746340
996.5636200	34.8564730
1051.1135000	-15.6122470
1036.9299000	-3.7136351
992.3606500	40.4558200
1004.2097000	-33.4371950
994.0558200	9.7700669
970.1145200	-8.3907541
1014.5397000	-39.6265000
993.5539800	-37.7872950
1014.1238000	-41.6778040
1013.5641000	38.0042480
1009.0904000	30.5388270
978.6100100	-43.2165550
964.3356800	-35.9339310
922.4374300	43.5589160
949.4522500	-14.9684950
990.2221600	-0.6144837
926.2257000	8.8997752
931.5324500	-29.4817360
977.6791500	4.8705021
915.4263300	-36.7868360
953.5998500	-42.0213990
948.6041100	-41.3912310
914.9568600	1.5170064
927.4139600	-23.2926450
878.8413100	-29.8780990
914.4161000	-39.3081770
887.9715700	-36.6904000
847.3759400	-19.5325470
900.0725900	-21.3089460
901.2769300	24.4193240
911.0449200	-10.0038390
876.8676300	-15.2284320
875.1643400	-24.2207050
828.8699100	39.6308440
886.5620300	41.9188510
902.3245100	14.6174170
873.9281200	22.1029650
825.3794500	-37.6253010
803.2916200	-8.2246850
823.9175400	-34.9244720
829.8087200	-46.2242450
805.1855800	-31.3615160
859.1654400	2.2182322
810.4501800	36.5984170
868.2030400	-16.2125690
780.3675200	-46.9969040
775.7952800	34.6464670
847.5344100	37.6956700
791.1945100	35.2433610
799.2978800	5.8622762
825.5217900	-31.7757570
803.7548000	-27.6508690
818.0545800	-6.2604731
794.7612800	-36.1490030
743.2388700	-26.5251300
791.5266200	22.5052910
820.8692200	28.1187570
796.8313900	32.9183810
796.8830900	-36.5896850
744.9576500	7.0480128
802.8662600	-37.7234350
794.2986200	3.8435854
789.9186500	-38.2436060
760.8259900	-36.1248910
770.8895700	12.6877070
727.4411900	-7.5288772
715.0749700	35.0535740
715.9532800	-28.4122270
693.6513300	-4.7860875
706.1095800	-16.1589590
699.2750400	11.4854800
764.0993500	-13.0683780
684.3431400	27.3203290
747.1928900	-20.7756100
721.9239800	8.7765395
706.6634900	-9.7470548
662.0487600	21.7912620
688.8507100	-35.8017700
743.0564400	-1.0421905
735.6051800	-20.9933520
735.1863500	-7.1625449
661.0060400	34.5996880
701.3766200	-12.8296550
691.6728900	-15.0868900
690.3606300	-8.2555799
708.7641400	1.8042393
678.0683600	-11.2210340
692.7458200	-26.9766650
693.7417200	-25.5440880
711.1179700	38.8289740
692.9943700	40.2139980
663.2119700	-35.2973570
636.9801800	-19.8696780
640.1093200	-7.4915777
640.8472700	10.2189460
613.0003700	-39.2184350
686.1792400	-10.3832120
640.4242100	18.0587860
629.3293900	-19.7984460
633.4431600	-13.3076420
645.4358400	26.7632550
642.1732700	35.8153360
669.0878000	30.2345950
653.0791100	41.4466050
667.4877700	29.3239090
600.7530900	7.7288750
650.4474700	43.1430640
597.7201200	-9.2799055
611.0601600	-45.9165080
612.3890700	-24.3158010
629.7059400	-37.8642430
577.0660800	-14.7719750
591.2601300	-46.6028790
635.7070700	-31.4865460
581.3351600	44.4154890
635.8503600	23.8978240
631.7352000	30.6475880
558.1195700	23.8436620
610.7285400	-2.8719984
586.7958900	3.0253337
593.8211100	11.5218140
591.6495900	24.4280650
610.2107900	4.5278288
531.3101900	20.5933460
576.4355200	-37.4891610
568.6110100	8.0977726
588.2897300	17.7577020
537.1107600	0.1703768
529.3884100	-39.2180420
506.4552200	-13.9293630
523.6116100	-21.7380820
513.5748200	-21.5624150
591.0556900	-22.6504200
566.7682500	-29.3264700
557.5060600	35.1607850
565.6731400	-31.8644990
570.2272000	29.3871730
485.5606000	-26.1451310
502.9850600	-43.3298600
569.4284900	40.4332060
505.0827900	-45.7209810
512.4328300	22.4959460
506.9808000	-36.0952990
524.6683500	-34.4982160
556.7089400	-9.2104640
542.3538100	44.5658790
500.5907400	-13.5746680
497.0293200	35.8146700
457.5861800	45.2782400
498.2019600	26.0623250
528.5319200	34.3793890
492.6338800	31.6708980
514.4311400	-43.3671210
537.0748400	-36.6956030
455.0119100	30.4138800
449.9361500	-21.3480940
473.6747600	41.2911410
496.1987300	5.7305224
459.0268000	-34.4541470
490.9082700	13.6426940
462.9445700	28.3971690
444.3645800	-7.7486399
493.4050700	24.1466510
434.8644400	8.2115848
508.8823400	23.7294800
421.6774400	-9.5604882
416.6869700	2.4528047
434.7369100	-1.6785349
497.3918900	19.4683700
482.5009000	23.4614030
458.3036300	-45.6471860
417.9554000	-39.3534380
414.6099800	37.1234370
435.0506200	-41.4002130
469.5054700	-32.1750610
445.5514700	21.3630190
479.2572500	-23.5654340
486.4789900	-6.4499896
391.4957900	-34.3760590
459.9467800	43.5197990
466.0460000	-5.4521320
422.9565700	-4.7548617
474.5779400	10.5991440
419.2194400	32.5151460
445.5659700	-21.4524370
378.5389400	26.6095920
408.0700200	34.6829890
457.1995200	-18.2410480
375.8755000	-46.2292700
431.8283400	-14.0614880
387.8648000	-29.8382000
428.8952100	-24.3378780
395.7050400	4.5540628
367.2556300	6.0553760
401.4704600	9.9971898
420.7739300	19.1936870
419.7381000	17.4345740
395.9524000	-31.1983570
366.7699200	38.4745050
423.9184600	-15.2927510
426.8080700	14.2577810
395.7182700	23.8891040
387.8473700	2.6483549
425.0151100	46.9905570
418.6814200	-11.6546210
402.6638700	-32.3038420
375.1836400	-15.7794090
374.8231600	4.5929468
376.7544100	-31.8075720
401.0632800	10.3875020
375.1302600	-41.9278150
362.2527100	-20.3395780
374.8948100	-42.9683610
332.6942000	-29.5804590
330.6207300	-29.3210270
378.5562800	-5.9200381
400.0485700	-45.4255420
406.4516500	-17.2714530
386.2240900	43.6082320
360.0343000	-35.1282230
384.3292400	-41.4678600
397.3941500	2.7934499
388.6248100	8.6995682
313.7851300	-11.9222120
355.6538300	-38.3495110
390.0233300	-31.1949290
391.0392800	38.7358080
345.5358400	3.6852135
354.3779200	37.9077510
384.2300900	16.1236600
364.7729400	31.9239300
320.1562000	-29.6569160
360.7421400	-28.1475900
330.1316700	23.7231680
306.3025800	25.7147060
366.2113700	-23.4796090
332.8892700	-1.5007035
360.3908100	-16.2743670
290.8861700	-27.9082300
331.2803800	7.2381520
323.1350200	10.6328920
340.2862400	9.9560652
280.7562000	-20.8611300
325.0978400	38.1952220
300.9745300	45.6319770
300.5766100	-7.8868560
292.2505300	-43.8857750
335.7726900	23.8445250
287.0336100	16.0412230
289.1562600	44.4983660
321.9518600	5.8340584
323.0496100	11.0479630
268.2673600	-15.7876670
331.7397500	-10.5539320
324.1612000	-2.4857445
294.6887800	-38.9334140
292.9253000	-27.8441610
292.7573900	29.8697990
283.6781200	-13.7004900
303.3490300	-31.5883470
321.2395800	-37.5510840
249.9218900	-27.7402190
304.6734600	28.5662160
260.8480100	-33.7530770
298.2351700	45.8789950
326.3102600	19.0845590
292.7573900	-29.5586970
294.6387100	-4.0615024
241.4221800	-23.7333560
313.6010800	-10.6017290
273.4407500	-19.0949030
326.1265800	-2.9169365
241.5590200	-42.5504300
244.4362200	-46.4177040
299.9596200	-36.3836530
238.0642900	-40.0621910
284.3855000	33.1155440
291.6317600	21.2523090
295.5468000	-11.7540220
297.1220400	-30.1886380
263.3681200	4.9411553
313.9840100	-6.1566773
281.6927100	-10.3683890
275.5549100	32.0701420
294.2444800	-32.0425440
250.9047500	-30.8144270
242.2364900	22.8828100
247.3390200	-31.2517410
275.8748100	-17.2840340
248.8870100	41.0254560
217.6560900	-22.5311610
243.8411200	44.9585740
235.8115000	43.2034580
258.0293500	35.8302370
298.7100300	-5.3610323
261.3920100	4.7464450
239.7150700	0.3112715
278.0306300	-38.8005520
215.9026000	11.5565850
204.4919700	-15.8109180
289.3351400	-7.8360648
238.2150600	-22.5282180
235.2298200	-46.1797570
226.7184200	0.6085188
244.2918000	18.9069170
218.9035400	-28.5653430
195.3554700	-40.7828700
227.9850700	20.3238720
212.5342300	-16.4702410
244.1174000	7.5363269
243.4543800	2.5832073
233.2539600	15.5848800
200.0438800	-39.1742470
229.6473700	-10.6081580
258.2980000	-36.7143340
232.4842800	28.0671320
203.7857600	25.0184950
209.8367700	17.8941370
204.0891900	-17.4832540
253.1061300	-11.6116360
205.7405300	36.5186910
180.0475500	-27.5965530
245.7282900	-2.3485930
247.2236100	44.0656210
195.3637200	-33.3228380
245.7299600	-4.3562586
227.3120900	35.9183500
231.8894300	40.0474360
244.6702200	12.1246390
193.4516500	-45.9972710
205.9439500	-29.9094520
230.7840700	8.4028794
242.6908200	25.7119870
185.2905800	27.5485880
176.0137900	39.3740550
191.2072500	9.7228029
223.5884900	-36.4871740
215.2584300	-42.0963590
174.9002100	18.5807090
215.8424900	-19.5393450
184.4721200	-40.1141570
195.3899400	22.3485850
162.2983900	26.4466600
193.4937800	-24.2685720
210.0682500	22.3566580
159.3272600	28.8587310
213.4227800	-12.9617020
207.9854300	-11.0897360
176.8892000	34.1613480
162.6768700	27.1531880
172.6279800	-36.0523750
183.7340900	-7.9869529
219.1591300	-0.5918882
202.6765100	43.7710770
150.4496400	-31.2184150
211.0514500	-31.8399940
185.2658900	29.6452060
146.7557800	-6.9144880
228.3115800	-46.4631780
168.0607100	9.9659541
146.2907900	-11.8873200
214.1298700	-24.8905170
218.2820800	-22.2096930
225.7651800	8.8190989
199.1759500	1.1428655
219.1418700	38.2451660
183.3126700	35.6919310
203.2350000	-44.6089240
207.2849400	-18.4159040
206.4091100	-3.9673947
150.9560600	-45.3978000
202.2224800	37.6473510
172.1911400	-29.5465000
207.1942700	28.5082150
180.4580600	34.0152940
210.9500900	-0.6019570
184.1161000	-45.4403390
141.8988200	-6.1686516
154.6879200	-8.7039346
152.1499100	-13.7641410
174.3089500	3.7426499
212.7279100	3.3782515
210.5099400	-0.2664578
213.5572900	-8.7639772
152.0967800	30.6546300
135.7660800	23.1657470
128.0259000	-9.0205469
210.4182400	-7.1484820
132.8331400	-16.1323910
156.4001200	8.9427763
188.8458500	-39.4394490
115.2820000	-35.2992720
177.7356400	30.3315940
115.6133300	-37.0723520
116.0165300	12.2353900
152.1274100	36.5681760
150.8010900	-29.4408930
158.6122000	35.5844750
146.0380700	5.4607233
151.5520300	44.8147330
180.1255400	-39.4660200
195.3515500	-18.5439430
133.8868500	-21.7829450
175.1791900	-5.8669662
110.9109900	4.5090932
176.3571100	-30.9417100
152.2453100	33.1867200
141.7478100	-14.2853350
156.0817900	41.0041320
182.9922400	27.9657400
177.5372100	38.6829790
145.0982600	46.7152850
163.8592500	38.0886550
146.1816300	36.7071070
165.3893200	26.6827750
112.9331200	-9.6605646
135.8176100	45.5125100
188.0806200	-15.3619950
135.7086600	-2.6902695
128.3765900	19.2647400
146.0734700	16.0517890
168.3242400	22.9265870
152.0554100	-19.2156860
95.2911920	32.4810520
149.9830100	9.2931140
111.4756300	9.3480457
181.7816000	8.8077031
150.9680900	-9.1475832
106.5107400	-26.4374940
141.5149000	25.8900190
178.0889900	31.4325770
135.8927300	-12.0733910
141.4106100	36.6346530
163.2578800	11.6912250
143.9600300	-31.2047620
91.3373170	-9.8624927
166.3746100	29.2871330
89.7165050	10.0084380
122.2610200	-37.0682440
82.3666600	22.6944800
164.0713200	27.4784930
143.5509600	8.4576034
155.8056100	24.0987210
123.4879900	4.0965995
123.5069900	-0.8897636
169.3209600	-13.0680220
96.3787220	34.6816490
106.2226400	-36.8040960
131.7642000	-37.8390950
121.3990800	-5.0115927
101.6793800	38.4605110
100.4630600	1.4057421
156.2285600	5.4952097
107.8516600	20.2681340
127.9082900	2.6652296
145.1249300	-0.9265465
73.4136110	8.0137399
98.6307270	35.8863690
133.6518300	-29.8423660
135.7640800	-19.3043850
103.5142200	-21.6014550
80.4503040	37.9570820
117.0223200	26.4342780
90.8777730	39.5323820
79.2172970	-1.5682228
84.8723550	8.3482447
74.3151650	-46.5886390
144.2680000	31.8955010
69.1634360	-36.1233660
70.4117650	-29.8007610
100.3125900	-30.6987730
71.4256530	3.2958996
90.8196300	35.3269770
115.2209600	44.9908490
71.0206100	-46.4867610
126.5559600	-41.5508530
135.2794100	-41.7290400
62.0316770	30.3884960
130.7770000	-33.7589960
72.8732200	-23.3784430
110.9638900	2.1729137
76.3872290	-30.2683460
94.6171090	-36.6478020
150.9557800	21.6316670
57.6731700	10.4924450
71.5753400	-13.5941360
132.1099200	22.2903650
116.5317200	-7.8881443
132.8555000	-37.5428900
93.6390230	-34.6113630
128.3120500	-40.7777760
138.8711900	24.3825150
141.7923300	-17.3911650
58.7783670	-42.3726180
74.1558250	-39.6106900
106.1306600	44.8607710
89.4012000	23.1374240
76.4630280	-36.8382230
124.2732800	4.1053485
88.1610860	-22.3778350
86.9799000	34.7319190
57.2765320	36.4354920
128.1654400	19.2315060
136.3723300	-19.5090830
82.1563170	17.5254710
70.6131610	-32.6302240
134.1589900	12.4513340
123.5229300	38.2733690
102.1946600	-39.9821880
137.3810600	42.6760880
100.9198900	21.2754250
119.3017100	40.9738760
94.3580240	37.6792850
95.9867210	-37.2061610
85.0432980	35.5535260
133.2197300	20.3904600
78.0346850	-34.5147320
117.1712700	-25.5411450
92.5702760	5.3201074
85.4179530	36.5478150
99.6372540	-1.7828193
40.0166300	2.2999014
53.7522270	-32.9398150
44.3740940	-12.3428680
44.0818870	17.9817430
57.7182350	-20.2838980
64.6706330	-16.0548510
110.7539400	-12.4590060
56.9642870	-46.6265370
90.7408020	7.5633202
111.5415800	35.0364660
108.2377900	-4.7686452
127.3339000	36.1935070
126.7199600	36.6480690
44.4658220	-0.2753136
71.1228680	14.4612880
80.0675440	-38.8545460
56.3475180	17.0719540
112.7057900	-29.0486730
79.0104360	-11.9175740
90.0867850	-11.1492880
95.6835780	-24.4719480
92.8347430	31.9621280
112.2460000	-28.2884890
93.8687860	-11.6510240
86.0563020	-26.1385920
68.3937480	30.2731450
65.9116320	-26.3999340
32.2863940	-44.1318240
75.0961670	43.3393030
83.9853260	35.0628300
100.0418600	-25.5925110
100.5710100	-2.6357832
35.4782520	41.6082990
30.6887560	-1.8247000
32.5130210	-18.5230440
61.3785390	-38.3015190
38.6026650	-34.2670830
68.0121900	-34.3153360
97.7354810	-31.9041140
43.0266490	-26.2774810
59.3876810	-20.9372290
78.7300130	33.7598460
74.5085100	4.0293233
68.8716940	-44.1763310
57.4397050	-24.9285700
99.2408090	12.5381710
107.1438500	-3.2956986
111.5135000	3.7799117
36.5061120	3.8934624
51.5068760	44.5838710
32.3920980	15.6533590
24.2465470	3.3870499
107.4351500	37.6485490
50.1453630	-19.1495940
98.9845330	-8.8696022
26.3098580	-34.5909950
65.4324850	21.3557100
59.1717210	9.2918503
54.8845390	41.9906200
77.9562740	22.8173850
70.5084810	9.9513337
36.5977100	27.4492110
27.5882480	3.4206654
96.2001720	-44.2493890
109.9060900	15.9965760
108.8685400	-27.6313360
18.9044010	9.6131326
102.9573700	-3.3873033
79.9717290	-14.1857100
57.2419970	33.1678930
35.9806770	8.0981321
96.0212930	35.8411730
101.6248000	20.3944230
70.3676120	37.9372340
56.2453050	25.6819280
103.4134000	-24.1165910
83.0133230	42.6071460
40.8272670	23.8775360
71.6186670	42.0676590
99.5743790	-42.0530620
46.7658830	-45.9407410
18.2667500	-22.6775400
104.2601500	-19.2094180
13.0766030	-9.3200087
66.4112360	-33.9023270
38.9287520	19.5144890
52.5378140	37.9856410
51.9529700	32.7776710
79.1589180	19.7387890
48.4276100	-2.9273463
86.1156860	-37.0160110
32.0492360	5.0639509
14.0809740	11.6867830
92.2914010	-16.6354510
65.0878980	36.2233640
31.3852990	39.0343470
18.7722300	45.9972100
74.0238050	-41.0569820
75.1738910	4.1609460
38.5811250	-12.7878870
24.5022540	17.3811400
11.0503940	32.1961990
31.1767770	26.8795270
28.3331300	-32.4017230
83.4520630	-4.5587629
18.6343330	-16.0521570
16.1308270	37.5949530
99.1183900	-3.5478209
73.0661840	43.2337950
16.2594020	-0.3336155
94.2762010	36.3450850
83.0467340	-9.5651093
62.6633900	-4.3509062
76.2409890	6.4228338
31.8423990	-44.4963350
91.9510490	-21.3622230
17.8329160	-42.6941990
42.0935500	-33.9203050
32.3775800	44.9447780
33.0532990	-9.5237688
63.3599610	38.6323730
30.2067250	-31.0175660
89.6104320	37.0721990
82.4089160	-11.3693090
14.8829600	28.4722300
44.4110800	-0.9341583
16.0075450	7.2405789
69.9841850	-15.1525380
73.3252930	-5.5822184
28.7294530	2.1450356
59.2971000	-0.9015931
92.2537850	37.1740900
68.3780200	5.8639022
41.6637650	-26.6086440
55.4582950	-7.1629144
29.2332080	44.0397820
43.4817110	46.1056330
15.2970960	-38.3769940
2.0221887	-26.1806720
71.2718070	-9.0312768
56.3253750	32.7327370
81.0618000	-24.0435310
88.5842830	41.1100910
8.3820960	-3.0555541
12.7265590	16.0254740
42.1246540	-13.7239690
74.9274880	-20.9968880
32.9517950	0.4572966
55.6369910	-21.2769650
4.5396762	-41.9480650
70.8203350	25.6548910
13.0038390	29.4764680
33.9151170	45.5131270
74.8533880	30.7218060
64.8372080	-33.4756430
66.2781520	-14.1978960
25.6890980	-0.0441053
6.6817503	17.2649620
55.0547710	36.1418750
42.5270340	40.4671110
83.1869410	37.4100650
-0.1941099	-15.9991410
75.5252360	-1.9386052
14.8156370	-45.2129080
66.7984420	-8.2946881
60.8985370	14.0205310
57.6191250	2.4755649
59.2353500	-23.3925060
6.8800574	-36.4381190
1.5649647	-20.2110370
16.6401610	-37.7864670
19.6798070	11.2774650
23.7959610	-19.7944550
50.8939030	17.4927040
62.5684990	2.5248929
33.1823080	5.6039708
75.8963360	19.2112930
-5.6048576	39.0956280
4.4494005	27.8757480
21.2592420	-21.6938850
62.5845820	-6.5485366
78.0863470	-42.0561720
67.4189260	41.2995630
21.7811830	31.7497860
74.6926630	14.5273550
72.4886720	23.9643580
35.4416970	-6.7368390
28.8267650	13.9372570
67.2351400	32.1190590
76.1869560	-5.4925689
71.4525380	0.5741759
59.4391600	3.0755601
51.5089750	-44.4213170
56.1334390	-2.3660000
15.4331910	-15.6969000
60.9816910	-37.9127620
16.2846490	3.9428181
77.7955880	-28.4085070
5.8573037	35.0773460
13.3442580	-6.7588562
6.4736682	-27.0156110
57.7831770	-9.7276880
50.7209260	-16.6062920
-5.3216370	14.3316220
27.9336320	-33.1569950
77.4514390	11.8414410
35.1621930	13.0452770
4.7310355	4.5525760
64.4650920	26.8517570
41.6628240	-27.1445910
28.1422850	23.2783400
45.5153460	-15.9590290
-5.7487178	22.1821800
78.7322150	-42.7030620
76.5825080	42.0826580
28.8627160	35.3393860
48.7824710	17.6261080
33.4527040	-0.3452923
59.9778900	-6.0528216
30.9493960	-35.6816730
-0.3509372	-22.1352060
49.1363670	-3.6369157
-5.3877190	16.7789100
10.5265640	6.0107752
-0.1882833	37.7656120
-5.6559690	-6.2650905
69.4968260	27.7753440
39.6127050	-15.0794970
67.0148730	-34.1866740
-8.2896675	-11.2464660
23.7652130	31.0822070
8.3969085	44.3926400
-13.1844920	-32.9863130
47.2561880	-43.0110780
61.5740520	40.7939520
45.9754050	12.6492290
-1.4632112	-21.3922930
-2.7755533	-28.6969040
59.4182040	-1.4358962
55.3345350	-17.3010760
64.9536950	-7.7951855
17.4540890	12.8386080
70.8846960	-14.4339230
38.7011060	34.9411140
52.3810340	-28.0295160
-17.7048140	21.5719890
24.0181160	30.5619080
49.9680210	-14.1440860
60.6031490	-7.7811868
1.2848992	37.9432430
-6.1493031	-31.9528090
4.8223150	14.3408520
35.4923570	-5.8241197
53.4212380	-47.0767320
60.6638250	12.3506500
-11.1472340	41.6972530
70.6994940	-5.0512979
-16.0493580	-34.0878840
-19.5330530	27.1786950
2.6042875	26.5727970
67.8516790	-22.4634290
21.4767510	36.2480380
60.3531360	-46.5407280
48.2901410	42.0830300
69.7810830	39.8749140
37.4379230	10.9599400
47.8272930	-14.8073940
-3.1097893	-26.8305800
30.9116080	14.9645850
36.8533870	-27.4212970
64.3673650	2.3404299
-6.7609493	26.3866680
21.2478780	-36.3983240
5.6472875	12.1126710
-1.4888435	-26.1725900
67.1244910	-12.3348950
-18.0488940	-39.6945700
59.9014240	-3.6737015
5.0620626	9.0312614
55.8119630	8.5730833
47.9133930	0.8040369
44.6662430	0.8171732
0.5081835	-26.3985180
13.9128480	39.5507310
59.8896820	-10.4406180
2.7409991	-9.7372866
52.9387840	-34.1217780
14.1551470	27.2639730
42.9209420	-6.4734473
32.2698000	-8.3197287
30.8248590	36.0407010
63.4009100	-6.6292750
8.5569243	39.1205770
53.8201310	-36.7924670
-9.4290020	43.4077530
16.5791800	-22.9585880
-4.8782308	-14.2496070
-21.1525600	0.1272522
-21.9934670	11.4752840
46.4807350	-22.2380130
-18.4513160	-15.5059960
5.4731949	40.0960420
-21.9924450	24.7069390
39.2214190	14.9538120
40.4584280	-45.4531650
31.5122530	-42.9788340
-10.6402310	-30.6345560
22.0372820	-2.7299993
43.8068510	29.9232870
5.1016655	-10.1819310
-9.6877070	20.3026690
46.4128160	-33.4901510
16.1343270	27.8417420
54.5871660	22.6920440
-9.8845273	39.1540420
-6.1392809	34.7259370
14.7439020	-24.7485070
24.1258760	-4.2910368
43.7921020	-34.4965550
48.7701920	22.9586790
35.5110880	6.7081143
39.5860790	-37.8103670
-26.4425240	-41.3621630
29.1329310	-6.0145894
-15.0004770	14.1956440
14.5497930	-5.8792189
60.1642270	45.4588460
-17.1849570	30.0896810
42.0292380	-24.2122960
59.2339090	19.4245000
-25.8275330	41.3201070
-24.2436330	-23.8721120
13.5389180	30.1583680
52.1952040	27.9758960
46.9216190	20.6427620
-26.2722260	-43.7418850
23.7940840	-39.1153810
6.5876915	-25.3151020
42.5246620	30.3203030
-3.8205620	-34.6921500
52.0105370	-41.0040090
-6.1516081	36.6088200
56.4939240	-36.5122960
45.9323260	0.7250893
61.3989020	-44.5340620
27.3044370	-25.8795990
9.6919115	-45.8189730
-29.0759720	29.6652310
2.8606731	-18.2040640
-24.0851750	-41.0846950
-29.2302640	-3.3020423
17.4747150	-13.5823410
-25.3086200	36.8329900
9.5118192	-19.2690270
21.1360410	30.5340920
-9.3237578	34.4223130
50.0819510	-4.6880245
35.5158060	-13.4036010
-10.3277600	11.3502490
21.2156630	29.0964270
55.8756420	14.9259030
-10.2881290	-20.5734690
1.1233755	-20.5849800
22.3152810	-10.0728940
28.2942270	-27.1089880
21.2137430	23.2846510
60.7780590	17.9519550
-8.8847974	4.5564102
29.5896700	-4.1613829
56.9911690	42.7199160
59.0884190	35.3254000
26.0874530	-32.7810890
20.6561360	35.4447140
54.4289890	-25.4620100
-14.9858710	1.4065388
-1.7095205	-28.4581330
-13.1432070	18.7133190
59.3944970	39.0673320
31.3779870	18.8985900
-19.7782890	-24.3990710
4.7531665	-17.5639640
56.6398900	-27.7532280
-7.9543340	7.7631674
40.0547040	-22.1124270
17.6210750	-45.1518060
1.7770229	-17.0064320
6.5563269	-42.0423490
-22.4506770	19.6510490
34.1678260	-16.3694620
-1.4773293	-13.7339050
0.0367939	-42.2307290
1.7221818	26.3220630
1.1199794	39.9190790
-30.1883440	-16.9456100
11.1728860	-28.8937930
7.5873239	21.1744790
44.0220240	-32.0504910
12.3669850	-44.4332510
25.0631890	-0.5946098
5.8106869	-41.6941050
-14.3000990	-22.9147760
-26.8441430	-29.1133160
-23.5459950	17.0229390
-10.2686580	11.3231410
21.3416030	46.5736300
-18.3462930	-8.6877296
-8.7151696	44.9733210
-1.2180896	11.7399130
-33.2415900	45.3444130
12.3244100	-32.3196180
-11.0911390	-46.7619770
-11.7837730	-33.8397840
49.2363980	-17.5128210
47.2091510	22.3320600
39.5499900	38.8911180
17.8310730	-28.1624410
37.7178950	21.5221590
34.7615750	1.2514511
54.4796860	-35.3010890
-34.6644800	-24.2494960
40.1587950	-39.2876500
56.2458840	43.2631090
9.0423436	-3.3964968
25.5299530	-16.0611740
55.6957340	35.2170350
26.3025080	-23.2773360
-22.1644850	37.5858250
39.7176720	-39.0791150
17.6249530	4.6517497
12.8000050	20.6272730
35.4895660	42.9945870
-30.8802080	-11.9489280
16.0399880	-26.1142130
32.2991620	-45.4914810
6.8178294	-24.7269960
-11.3065390	32.6576890
36.5844390	-40.2184990
-32.9403810	-10.0370500
8.5525875	-14.0495050
-17.9943190	36.4426190
49.4848570	-23.2108570
26.6322580	-7.5469488
-9.6788871	-26.7592860
47.0749630	-1.1717689
53.4439230	-42.0168890
41.4073030	-13.6114670
12.6611690	-37.8757130
13.1608740	38.3517980
-16.7999730	-12.5966590
-28.0330370	-31.1027050
43.5435380	-31.2938560
-4.0682421	15.7948780
34.7814420	35.3112480
-8.8812965	-2.3602804
-0.4322266	0.7249595
22.4345400	29.7901150
14.3045340	42.5091630
5.6157840	39.7800810
54.4690450	15.3358500
-1.1988137	2.5884437
-11.5016340	-31.1711070
50.4486690	-25.3238690
-2.7380418	21.5138640
20.0150000	24.6165170
32.3656670	27.5880130
-27.2962240	-42.5818180
11.9282060	-39.6429470
-12.7082270	26.0683840
47.5537200	18.0215280
54.7205700	25.5450970
-15.6675110	23.8786970
54.2939830	-14.2759260
-20.9161210	40.8322050
-7.9201758	-20.9471470
14.7155330	-41.1273290
21.8397870	-1.2061738
7.8835613	-1.0156790
44.2702490	5.3834915
-32.6913740	13.7349580
16.6760460	5.2130376
41.9980080	-12.6684120
-20.0606460	2.4766809
-13.2783900	36.8535360
-30.7806780	-47.0697460
3.5721872	-0.3697840
-17.0129120	22.6121940
21.5158600	-37.3446870
9.5999301	8.7779130
-19.1033980	-33.4407510
-35.4836210	15.3081630
45.8045990	-41.5618270
-32.7848020	-36.3158930
-25.6279040	-0.4417731
-31.6055080	2.7594408
40.3641450	-44.5408440
19.4562540	-16.9723430
42.7989470	4.1684776
10.7444620	-2.1677524
-21.3417080	35.2928630
9.6290462	-18.6828200
-1.9643716	10.4747060
-0.2684398	-46.4562210
-5.0006696	23.3455080
-19.6411690	-30.1505670
31.3689000	18.3575890
8.2528088	-2.5747545
-11.2637650	-20.1121420
9.5111835	12.3641810
-20.4907070	-15.2790300
18.9826450	5.8928949
-4.0792524	-39.6650030
50.3039480	-13.4205820
42.1173220	20.3097710
1.4845062	33.6436200
41.6783060	-38.6166910
6.6126640	-34.7086250
-22.2993370	4.7363576
50.9738640	-19.1719740
23.9370550	-21.3361270
27.0965920	-44.0082730
34.8127100	35.9045230
53.0337380	41.0278070
53.5335920	-30.2075940
-26.7963660	-12.4339600
42.4494610	18.0998630
39.0298780	-3.1154858
10.2384320	30.3023700
-30.2974540	17.6227340
18.4698470	-29.1699930
34.1081000	29.0766560
-38.4631810	29.8427950
11.5783440	-27.0667070
-2.3914248	-33.4757940
9.6236315	2.6305779
24.3694130	-11.8872160
4.7629569	10.8149390
35.5972130	40.5448120
33.9727140	23.2471210
19.6733260	-23.4500540
51.1491130	4.0241948
29.1600830	-40.3957730
1.6476557	27.5041530
-36.4468490	20.6160180
51.3299460	7.5058221
41.0388920	-20.3015270
-12.0489200	46.3473900
-38.1072220	-34.2914690
-28.1791690	-42.2814640
28.8975130	43.9109700
-3.7559520	-15.5011450
45.3051680	16.1055360
32.2033000	-33.1877880
-13.3260830	-38.8597900
52.1477190	17.6031710
10.4115200	-36.1554460
-0.7220375	5.7838037
2.6205597	-9.1770397
16.2934400	-44.9463500
-16.9832220	40.1612430
-16.8029770	-4.7209598
-21.3499860	43.6997320
-4.8803136	45.7386040
5.3993844	-0.9710621
47.0126010	-30.6193160
-12.4132590	-27.6899170
-11.4724680	-21.0216290
-0.9067364	-27.5469460
16.3221190	6.0781069
-12.5130510	38.9403950
-17.0848440	-20.7662010
50.2639730	-21.6613500
-36.7989410	-42.5141500
-15.4009540	34.4179180
34.3215580	44.6218560
50.9214780	0.4567917
10.7120490	41.8110100
-22.2101600	-9.0914728
3.8284045	9.9674510
-21.7289830	37.7135960
31.2270890	43.5112680
0.5316880	-37.4121940
22.0918790	22.1885940
-19.6513830	22.1577940
30.9833930	-41.8235890
-39.3578520	13.3638120
-11.5585110	-34.4434510
-26.9105870	25.3983970
-31.2710290	30.6417770
-2.8823557	-13.6485220
-18.0458750	-20.8965580
32.8824700	-25.1880240
9.2285241	35.7106940
-21.7225510	18.1047930
-15.1795130	-20.8083670
12.2040140	-16.4639890
-32.9476880	-44.9895760
22.3694780	31.2397480
33.5657260	26.7640020
-28.0069190	-23.9144330
45.2284780	26.0093430
-1.5773504	39.9091240
-23.4072950	-42.9349060
26.6511230	17.4978610
-17.6716080	-1.9721551
-18.4736290	41.6816610
10.4604160	8.5656583
-26.3275860	-7.5920005
46.1364180	28.6879460
35.1698530	12.1771150
-28.1606290	1.6284461
-17.0287970	-10.7381080
22.1162290	-28.2733430
-22.4914720	-24.0394900
-30.5790510	-29.1533540
3.2620549	10.0793810
30.4987420	-19.9490430
39.5046670	-24.0097190
-22.6552390	16.8726860
49.4257830	-11.6562520
-33.3284720	-44.2094310
-33.8131960	9.8378941
-20.4126790	39.2142010
20.1991010	43.8112280
31.7979040	-6.5909067
43.2296750	-43.5020970
-1.4732599	29.5417120
20.9497700	-36.9836390
20.7451460	18.7017850
5.2124109	37.5081300
45.2783090	-16.9687810
38.4113500	-2.2446380
3.3738188	-1.2759270
-42.2423610	-5.1217509
47.7309850	-9.0395712
20.3697330	-45.4987340
36.2067860	-14.0417340
-13.5460110	-0.3373149
47.5671400	-21.1395960
25.6549400	-36.8261060
-3.0958009	37.0876210
-15.9361620	43.3488100
43.6305670	-44.9900140
15.8561050	-37.8148620
34.6015290	0.7900590
-14.1038860	-22.6057000
13.8306220	24.8992250
23.8024170	14.6106210
-18.7231290	-29.0113660
-38.2476910	-20.2042340
30.6809270	-36.2233800
34.8897590	2.6494500
-27.1262190	33.8165720
-16.4208490	-1.8311896
38.6866050	-33.9593690
15.8745330	-26.6167450
14.5513430	39.1651380
-18.4572740	18.3337160
-19.9828570	37.1237180
-16.5241410	-40.0526870
-22.9526160	-37.1378430
-26.1656360	9.9625268
15.9216840	22.7053630
11.3246410	-21.0935970
5.3891779	-4.0737076
5.2647131	38.0052310
50.5377670	39.8694090
-26.8354090	29.9568920
18.1817280	40.2496990
-26.4017650	-43.2102200
-12.0547380	-28.3942760
-18.9353320	-10.4194590
19.1706010	-42.7954080
-9.4023034	-32.2107130
39.6676000	-2.8084579
34.2006910	22.3050530
-36.1617850	-25.5732140
5.5418168	32.8726960
32.3650180	-38.2093200
19.1951020	-26.7727030
32.0934490	-6.0006121
-42.6305760	-10.7874540
-21.4592930	25.5714910
-4.8569788	-22.6990780
9.9976190	46.8689420
49.7253660	41.0606720
47.5793930	22.8450040
37.4058860	45.7864820
7.8789384	1.0156558
-5.1874697	27.6187140
1.9954944	15.5854460
37.1658320	33.9326120
5.1217891	4.6632918
-3.7735361	38.5132560
-1.2638198	-41.7240860
-16.7087710	-36.1168380
35.3448440	5.9493664
39.6469690	-18.0259510
17.9104630	-13.2626030
-28.8635410	-24.4271280
23.9160110	35.6964810
