jMRUI Data Textfile

Filename: dataset26_nWS.txt

PointsInDataset: 2048      
DatasetsInFile: 1         
SamplingInterval: 2.5E-1    
ZeroOrderPhase: 0E0       
BeginTime: 0E0       
TransmitterFrequency: 1.2322E8  
MagneticField: 2.9E0     
TypeOfNucleus: 0E0       
NameOfPatient: dataset26_nWS
DateOfExperiment: 
Spectrometer: 
AdditionalInfo: dataset26_nWS
SignalNames: dataset26_nWS.txt;


Signal and FFT
sig(real)	sig(imag)	fft(real)	fft(imag)
Signal 1 out of 1 in file
53758.1110000	-109.3823300
53780.2470000	-242.3273700
53257.7420000	-473.2339000
52818.4040000	-444.3824800
52296.9810000	-358.0063600
51934.9920000	-197.2833700
51682.3360000	61.4750590
51533.4770000	189.3481500
51511.8260000	271.9166000
51368.6430000	222.7598100
51213.0470000	86.3015090
50982.1610000	-27.5915120
50636.8090000	-166.9413500
50326.8990000	-207.8884200
50001.2670000	-148.6121600
49665.0000000	-54.6489170
49533.9080000	39.8502140
49293.8190000	80.8520450
49190.1060000	72.4714790
48924.0420000	39.5066980
48717.5300000	-66.9737250
48449.7500000	-62.0926890
48167.5760000	-99.8507350
47857.5460000	-15.5856740
47650.8720000	26.3101910
47493.7790000	107.2623300
47314.9400000	176.8631600
47155.5720000	89.0441890
46985.5750000	76.8913400
46824.3110000	-52.1842700
46565.9360000	-111.2641000
46266.9170000	-106.7098200
45929.4430000	-102.3079900
45688.5790000	-66.9674230
45392.3970000	-16.8958030
45270.2640000	87.0133400
45088.0340000	155.3212200
44916.9650000	134.9532300
44839.5600000	154.9995500
44608.6830000	16.3130000
44445.1830000	-55.9532920
44216.6020000	-108.3534800
43937.1140000	-122.8717100
43659.5450000	-143.3896700
43424.1860000	-28.6540430
43243.1120000	-36.2456020
43029.6640000	60.5657610
42815.1410000	51.6821340
42708.7580000	87.2486070
42525.3370000	43.6596450
42355.9130000	-35.1596590
42157.1890000	-89.4935860
41901.2010000	-54.5289770
41632.8400000	-76.6646270
41356.8340000	1.3516265
41179.9400000	29.0444240
41008.4270000	92.6726830
40847.9370000	139.3913300
40749.8270000	111.7836900
40614.6820000	70.3112610
40369.2940000	21.9950060
40240.3570000	-46.4045130
40006.5250000	-78.4081080
39726.0180000	-67.1536010
39540.1370000	-43.3960380
39360.7530000	-8.8652347
39136.1480000	29.3102330
39002.7090000	92.4326270
38885.2360000	53.2767180
38708.9570000	19.5493730
38500.2140000	-73.6949160
38322.9650000	-25.6970470
38056.9030000	-54.2331770
37845.9000000	-63.4078950
37668.1690000	28.6763670
37491.2830000	5.1551742
37335.3230000	85.4822780
37275.6320000	37.9724660
37043.8630000	44.5817430
36946.7940000	-16.7032710
36725.9350000	-21.0643570
36453.8980000	-47.5978300
36282.7490000	-0.6908741
36080.1400000	-24.8665500
35931.4710000	103.3602500
35841.3070000	70.6193850
35749.1020000	125.9107000
35624.5300000	90.8254490
35421.6640000	19.8073870
35263.3890000	-12.7581970
35057.3000000	-53.3955450
34835.7840000	-120.0968500
34614.8750000	-22.8025510
34415.7850000	-27.5333190
34332.0860000	38.4445260
34178.7640000	48.1745790
34021.7630000	45.9130180
33915.4370000	55.7782530
33769.5960000	41.7118510
33605.0390000	-22.1780300
33439.7640000	-66.6193720
33212.7200000	-19.6566650
33018.9870000	-51.5526350
32861.2530000	8.5646036
32715.5080000	34.2350730
32587.7660000	0.8850879
32443.4840000	40.5535230
32336.0220000	34.0852990
32123.1260000	14.0979700
31978.0780000	16.0422650
31888.6730000	6.4955686
31670.0210000	-17.4379030
31581.6630000	31.9831900
31382.7230000	-4.6137823
31251.8160000	58.3811060
31129.1810000	-16.1275150
31034.5280000	-29.8391270
30859.7500000	8.2939546
30699.4380000	-8.7863277
30569.3050000	-32.6068960
30341.9290000	-41.1448770
30215.5200000	-0.2278547
30105.0060000	24.5499920
29971.7100000	4.6795733
29764.0940000	-21.8583240
29675.4170000	-9.7750632
29573.5710000	47.2255560
29389.7470000	26.6553040
29303.2660000	34.0015710
29109.4030000	-27.8072830
29005.5510000	-12.3434240
28857.2550000	5.8653309
28724.9890000	25.5737650
28583.4530000	37.9670750
28480.5080000	29.9983510
28300.1660000	26.9021010
28240.0030000	15.4531450
28084.3000000	23.6907210
27971.0530000	15.8522920
27827.0860000	18.6895840
27715.8550000	-42.7515280
27498.4240000	-15.2347370
27407.0150000	12.0935270
27266.0780000	-32.4588920
27104.9310000	-43.3773320
27023.8910000	-16.0997750
26860.6310000	-27.1030440
26741.0000000	27.4398400
26640.0530000	31.0437990
26454.5210000	-35.2333190
26400.2130000	34.7303560
26202.2350000	-18.9626200
26116.1850000	25.2822050
25988.1130000	6.3237890
25871.9820000	-14.9020880
25770.2020000	-1.6928204
25648.3690000	5.7192370
25565.2870000	34.3308110
25402.5270000	5.9027520
25309.3730000	-41.8958700
25137.0520000	4.5040827
25029.4510000	24.6441990
24888.4840000	-39.5548500
24831.8860000	-7.5899260
24704.4050000	-15.7711620
24575.7030000	19.3741330
24499.2150000	8.8245415
24389.8330000	-27.1627080
24212.0560000	-9.2754644
24069.0260000	-29.0262210
23971.5190000	-7.7366861
23875.9850000	21.8373850
23785.6170000	51.4110050
23656.4340000	-1.6703298
23590.7220000	52.2748730
23429.7010000	17.1195150
23350.0160000	30.9709170
23248.9620000	13.3066000
23185.9890000	11.8392220
23030.7600000	-21.2164000
22934.8190000	23.6290580
22844.2490000	-26.1214090
22731.6630000	2.2245373
22562.9080000	10.9078810
22509.2360000	8.8725520
22352.8560000	-49.8582560
22251.4120000	-57.6203950
22147.5880000	16.7875680
22039.5530000	-10.2761600
21914.7740000	-15.9334230
21865.8400000	-19.3508840
21713.5520000	-6.6314007
21616.1430000	-16.2196910
21539.4700000	10.8461600
21398.2990000	50.9067020
21366.3650000	4.1892133
21257.9080000	17.6837530
21160.1500000	60.7803470
21084.6510000	-3.1256517
20980.9920000	14.5721330
20872.7770000	-16.2165760
20751.1970000	16.8163680
20686.0080000	4.8419477
20562.9710000	-36.8965470
20427.7700000	-2.5410541
20383.0520000	-39.3554470
20248.7270000	-40.5990490
20156.1970000	-42.6652490
20056.2380000	2.1933771
19964.6020000	-13.2481680
19922.6570000	-13.0341940
19802.9370000	23.3639000
19657.0690000	-5.0543943
19580.0660000	-22.1136830
19466.8240000	-16.8185680
19373.1950000	26.8137120
19306.6330000	52.5129780
19199.8230000	24.9716050
19134.4340000	20.8412420
19074.3000000	2.0581471
18954.0740000	23.6513520
18892.2270000	6.7933366
18806.3390000	16.9699620
18730.3310000	-13.1248310
18665.2900000	-23.0885150
18500.9120000	0.9182900
18423.6500000	33.2524360
18406.8340000	-5.7130480
18319.9170000	-11.3719710
18198.0400000	27.8994030
18090.2140000	-4.3735143
18002.4340000	14.8984540
17926.4560000	16.7084520
17870.7160000	-17.7143620
17718.3910000	-26.6245040
17676.0730000	-8.2917483
17573.9710000	37.4373510
17518.6030000	-13.8667270
17432.2030000	-30.4993200
17323.8310000	-12.8679430
17273.7270000	-36.5834020
17180.6710000	28.2638250
17097.8370000	16.0164580
17044.7910000	23.7735880
16915.9690000	34.5727940
16828.2740000	-29.8439780
16821.2530000	-11.3806250
16750.9880000	-15.5019930
16626.5950000	27.6382220
16577.1730000	-16.8340270
16438.2720000	29.5264360
16378.0730000	-47.6325820
16269.4420000	-47.1336960
16193.4740000	1.2518220
16181.7650000	30.5885510
16100.4480000	36.0420160
16041.5430000	0.1140825
15929.3330000	35.2134660
15876.5400000	-27.2271880
15798.4260000	-37.4295770
15703.2360000	17.2036770
15637.3510000	-30.3175700
15519.8190000	33.0733600
15475.8880000	35.8446150
15453.7010000	6.8243276
15355.5500000	16.3914020
15260.9040000	28.7798850
15244.9110000	42.9181780
15190.7240000	27.7560020
15092.7200000	-15.7471130
15017.4460000	6.1359994
14964.6200000	15.7629980
14891.0920000	5.1103111
14735.3460000	22.4810370
14722.1590000	34.7726980
14634.2120000	22.8796810
14607.9120000	15.3588770
14507.0580000	-11.6147650
14440.5670000	29.0152910
14366.5190000	-17.5046740
14291.5450000	-21.0658280
14249.7040000	-26.3904940
14116.8330000	30.2386110
14081.5970000	15.6444060
14062.4780000	-13.8339110
13924.9480000	-36.3801630
13868.1410000	30.9579040
13811.9570000	15.7877440
13809.8570000	10.0798900
13694.2400000	-11.7798880
13637.0960000	-3.2380960
13561.1980000	-0.3456962
13526.3340000	1.2912554
13425.0590000	-6.3280609
13410.3450000	-0.1015945
13351.0750000	28.9795490
13315.4700000	-1.2552310
13174.1250000	-0.1056675
13113.8600000	14.1082670
13088.2550000	-18.9000860
13048.3630000	19.4484030
12923.8760000	-4.0393128
12857.6940000	12.2412610
12829.5950000	41.2471320
12718.9460000	-33.6930020
12662.0410000	-2.0092429
12624.1730000	-29.2585270
12585.1280000	15.6268860
12519.2590000	26.5248210
12443.3250000	-26.1687820
12394.0820000	28.8565540
12388.5290000	-0.9608150
12308.9310000	-13.9997470
12201.7530000	-10.2617730
12161.3300000	27.6118770
12116.6000000	-24.9243650
12049.9420000	23.7264500
11996.9790000	4.3917714
11980.5270000	-4.0765075
11929.0520000	-25.9076000
11876.3510000	-26.4751490
11818.2260000	-36.2858270
11748.5140000	19.0785740
11703.4390000	32.9236910
11636.0400000	20.2367830
11547.0490000	16.4413430
11476.5290000	-18.4928890
11490.3840000	-52.5408220
11384.7080000	21.9356990
11321.1220000	-32.8955690
11312.0820000	-15.7499440
11249.1450000	-36.4908810
11216.0590000	-20.1479250
11117.5820000	51.2076400
11050.0090000	-28.4326400
11072.8300000	51.1187200
10973.5620000	-14.4521980
10919.0140000	6.1559434
10896.5040000	37.2995170
10858.6050000	9.6650054
10800.1070000	-39.5602950
10696.9260000	33.0481020
10710.4920000	-22.8268970
10605.8920000	-46.5621760
10572.1370000	-14.4112010
10490.9130000	-7.7041183
10468.1080000	25.0036220
10376.7510000	-22.8333520
10340.5530000	-25.7846700
10299.5500000	24.3051870
10280.5630000	-22.0459730
10202.5880000	45.0917180
10174.6410000	-19.8369290
10136.5690000	43.4718920
10116.2530000	35.0149190
10030.6420000	27.2232340
10030.4400000	-2.1142273
9927.5867000	-7.7399349
9914.8655000	-37.3198030
9880.8159000	31.7652540
9790.8387000	27.8208730
9715.2284000	-3.3553092
9720.8071000	-29.6356520
9719.2347000	-28.1808250
9596.4211000	30.0474940
9623.1800000	17.3965280
9571.2565000	2.0895731
9510.6402000	-36.8958090
9426.5309000	-18.6137660
9404.2258000	13.6651560
9303.8243000	-13.0344090
9283.4013000	-19.9689150
9223.9208000	17.3565600
9220.4351000	-22.0949070
9194.8552000	3.9958054
9179.3274000	-1.8285372
9071.4597000	24.1543330
9070.2301000	28.1372190
9017.7698000	-19.2635920
8993.8678000	-19.3276740
8896.5176000	56.8585480
8852.3988000	26.1178060
8847.6638000	50.5784510
8846.9272000	-7.7739039
8807.0219000	-40.4589300
8737.2184000	-19.1053100
8649.1967000	-37.6860860
8598.9442000	20.3202120
8549.6997000	4.8422363
8550.2316000	20.6636680
8546.6543000	-2.6124403
8465.8903000	5.5892711
8413.4407000	-26.9253740
8426.2822000	6.8351023
8382.9244000	30.6136500
8330.4466000	20.0014500
8254.0711000	22.5102430
8238.8014000	2.9236558
8229.6315000	-18.7878030
8168.1927000	25.2532350
8145.9465000	18.3453960
8126.9697000	36.6518850
8070.7051000	8.4789829
8011.4102000	-4.4283590
7999.4291000	-39.5520050
7932.5400000	-13.8161660
7880.4421000	18.0901930
7835.2349000	-15.2466080
7830.3487000	-12.1768970
7753.8718000	-12.7227310
7743.7247000	28.4117120
7667.8271000	40.8228470
7677.2731000	22.3235930
7672.4175000	-23.4697360
7571.1007000	-0.6833615
7528.6546000	-46.2382030
7528.4977000	13.7534970
7479.0643000	-47.6615940
7471.1906000	-25.8515280
7394.4973000	-2.1049464
7404.7240000	20.6115440
7362.0481000	5.3267601
7340.3981000	-22.2730600
7328.9148000	48.9861970
7229.1094000	-1.9984202
7256.1995000	35.1632000
7162.1515000	32.4672860
7178.1026000	-37.2970820
7136.6357000	41.1770300
7101.5908000	16.7481030
7053.3410000	32.9840210
7055.6857000	-17.7757200
7019.0278000	-24.5930900
6926.4392000	3.8943692
6951.7948000	-25.5686650
6917.0366000	23.2114240
6886.4682000	-15.6330220
6816.5680000	-40.4927050
6817.5370000	0.8283296
6779.8718000	4.1617629
6713.2332000	32.0110570
6714.0350000	54.9664500
6686.4410000	10.6988660
6621.5302000	-21.0706990
6604.8043000	-48.9206060
6536.2826000	25.6186750
6536.2597000	-29.9866290
6539.0864000	-46.6913090
6441.7322000	14.7326330
6418.2331000	-3.7635576
6408.2035000	25.0670000
6378.2143000	-29.7362290
6332.5648000	39.6643860
6369.7239000	5.5253126
6293.8416000	12.6497220
6258.6489000	-53.3595860
6277.9695000	-38.3880040
6174.6825000	-37.1254060
6148.3464000	22.5779970
6146.0454000	41.9747290
6111.5925000	2.7668203
6090.3794000	18.4462760
6030.5341000	27.4812250
6002.5040000	-35.3704070
5991.1773000	0.3154079
5961.4562000	0.7864136
5910.1930000	-8.1355554
5903.7712000	35.3626170
5866.3177000	9.7981419
5824.9847000	-21.2315830
5869.0161000	50.6904190
5833.0311000	-33.0976860
5772.1920000	10.2547600
5769.9314000	8.0655901
5765.2128000	-39.3198860
5697.9018000	27.2147880
5676.6991000	-9.1725397
5607.6738000	-35.1276910
5593.5718000	0.0734200
5567.2101000	-30.6740950
5584.9380000	-13.4334970
5518.9184000	-8.0977702
5523.6172000	10.0069880
5509.5596000	-34.9602290
5469.2737000	-22.6867830
5437.4821000	2.8187304
5419.1286000	28.4950050
5385.2226000	21.8268530
5355.6956000	-27.4526360
5357.2984000	2.2541895
5308.0053000	-9.8621606
5308.8416000	13.9101190
5264.3276000	8.5353287
5217.5243000	-2.5508496
5242.5735000	-40.3708920
5200.0388000	-44.4410940
5173.7983000	9.0682484
5164.5743000	-17.5027750
5089.1297000	1.0532070
5077.2684000	26.2912410
5085.7933000	10.8883060
5090.3681000	11.0856360
5012.7143000	22.7584000
5014.7196000	-24.5955810
5006.1525000	33.7148620
4958.3369000	25.8392250
4897.7090000	-46.6930030
4907.3502000	-24.9173640
4882.3147000	-3.4541947
4875.9368000	27.8852400
4804.3140000	13.8295170
4856.2706000	-38.1152540
4802.8435000	23.4168680
4787.7497000	-22.4834130
4778.7489000	15.4225260
4742.8758000	-1.5310553
4692.2334000	-20.5388980
4688.0367000	-21.5493570
4654.3288000	39.5949610
4612.2728000	-19.7940310
4597.3634000	26.2493090
4589.5954000	1.5896146
4537.7368000	20.0077780
4512.2500000	19.2130100
4489.8569000	-15.0272800
4498.5354000	-41.7062010
4467.9331000	-20.2837520
4425.6804000	2.5198141
4428.2668000	-25.1889300
4389.2140000	6.8081888
4371.0240000	29.8675980
4401.8023000	13.0407100
4332.6415000	11.1738900
4354.9503000	3.0546317
4311.3176000	12.8859270
4297.8609000	25.0786460
4292.1947000	45.7862520
4268.8694000	-27.7987040
4232.1126000	-24.7959570
4255.7187000	43.0229860
4210.4457000	-1.4882725
4173.0879000	-11.6481200
4131.7990000	11.4187430
4113.6931000	11.8460230
4085.0256000	1.8632438
4117.3366000	-24.5776860
4088.0563000	-11.2600310
4023.3839000	-31.5365540
4056.1933000	-39.8622810
4065.0888000	-2.5758185
4033.9146000	-39.7737720
4000.6802000	-8.4038642
3937.7742000	-35.7497360
3988.0892000	0.8185236
3900.0188000	9.1116198
3947.9632000	-25.9075130
3886.3663000	-3.0565235
3898.2076000	12.5729920
3899.1449000	11.7192800
3860.4558000	-19.0678640
3835.9479000	27.2034480
3839.1447000	12.8033990
3752.3768000	-27.4750320
3773.1964000	-25.7042880
3755.6971000	19.4621840
3749.8493000	-8.5888636
3719.0242000	-8.4652350
3699.2619000	6.8110272
3686.6454000	20.1999590
3660.2986000	36.6017140
3636.7983000	24.1898160
3636.0206000	13.4925610
3587.1895000	32.5875050
3586.7040000	2.9279796
3590.5823000	35.8743030
3599.6693000	-3.0452678
3539.9108000	-33.8804020
3503.7158000	-1.3372210
3551.1633000	-14.7459370
3537.9798000	-22.3228760
3518.1854000	25.8300670
3494.3199000	-17.5546490
3459.7813000	31.1420690
3413.4799000	14.3869470
3401.0665000	29.1847720
3423.8903000	23.7755100
3345.4104000	2.2278974
3364.4647000	-40.3295530
3358.3118000	35.3666260
3342.5120000	-45.5279040
3350.2032000	-3.8225955
3322.2856000	-7.2867948
3322.2863000	-26.4506610
3292.0890000	1.8645697
3253.4910000	24.6006680
3244.7946000	29.6713580
3234.8411000	31.7796470
3188.8190000	-1.5239976
3180.6472000	10.0959020
3210.9891000	-38.1830720
3177.7036000	-29.2714990
3181.1067000	36.5394870
3106.4970000	25.7642290
3088.6198000	9.3464819
3081.7292000	42.7475520
3061.0186000	-6.3472821
3045.8963000	46.7075810
3034.8573000	32.3149500
3071.8361000	37.9078850
3053.2906000	-20.7537260
2998.9017000	-0.4162787
2998.3862000	33.2752990
2968.9847000	9.3267889
3011.2829000	4.5179141
2966.2170000	37.7053400
2945.2245000	-11.4299900
2900.9620000	32.7210720
2934.3363000	-29.3863970
2892.4094000	33.1651360
2930.9717000	20.7614320
2911.9915000	-14.2143050
2878.1455000	17.3501560
2830.3846000	30.6052030
2813.0496000	-12.2408570
2786.3495000	36.2158540
2848.5330000	8.4763346
2805.6455000	-37.4897060
2754.6224000	-1.9248513
2761.0005000	27.0921760
2802.9185000	-40.4577400
2735.8351000	-14.7262080
2693.8508000	-0.9562458
2686.5577000	-18.1113600
2697.5694000	15.6426820
2717.2961000	-37.5583030
2666.7733000	16.8879640
2674.0781000	-32.5511670
2637.7686000	4.8260464
2620.8488000	-33.3677480
2649.8183000	11.3220540
2644.3767000	26.9116220
2616.9109000	-43.3390190
2586.1067000	-36.9876330
2538.1960000	-7.3409107
2531.8505000	44.3310640
2592.1169000	45.4834540
2542.3230000	42.1825740
2521.7248000	-35.4628050
2554.7868000	35.9830010
2485.5376000	-39.1749790
2529.8162000	6.3098034
2527.4282000	-9.1046712
2486.3745000	-1.3893896
2484.1419000	-28.0638440
2469.8096000	42.8999580
2421.6189000	-26.7676610
2467.0226000	-26.4487090
2409.9682000	-20.2934400
2417.7807000	-43.6257350
2405.9292000	-33.0219510
2404.0469000	-25.8043300
2353.1398000	16.9917990
2338.0785000	29.2144940
2334.9930000	-39.7722900
2318.4786000	-16.5955080
2295.3024000	-39.1704840
2344.4197000	-5.2804257
2333.8679000	1.7297931
2333.2496000	29.9817150
2269.5983000	-29.8267760
2274.3755000	-36.7300600
2255.6861000	24.1437230
2261.8591000	43.2556110
2205.9592000	13.8834500
2197.1956000	-18.8221720
2255.1599000	-14.9270660
2245.7567000	-17.7494550
2221.0467000	29.1293620
2237.7060000	10.5106780
2146.9539000	-1.4512583
2200.0166000	-3.9855762
2164.2387000	-33.9696280
2138.4664000	30.2712560
2129.4108000	5.9387663
2114.9581000	-31.3812170
2119.9525000	19.0504120
2126.5645000	23.3201090
2129.5619000	18.5336460
2082.3972000	2.3566186
2074.8377000	-34.3063000
2035.2268000	27.1728250
2091.9019000	-15.0528420
2052.2100000	-0.6760647
2069.4939000	-6.9481548
2024.0662000	-34.0432910
2000.4797000	-25.0597760
2018.1285000	17.5147230
2034.9190000	40.2156640
1989.0928000	38.2430750
2005.0137000	-26.3046630
2020.2084000	14.9189790
1937.0502000	-9.0645574
1950.0525000	38.0067660
1940.3786000	40.5750020
1965.1734000	-12.7957140
1946.1483000	-41.0122940
1912.9287000	7.1569801
1930.7661000	-15.8045470
1943.0625000	18.9043820
1898.2151000	6.3217678
1896.9808000	35.6541480
1898.3575000	2.3026733
1868.9665000	25.3320710
1848.3759000	27.7288740
1848.3979000	-4.8833680
1852.3209000	36.6764250
1844.8741000	22.2252260
1855.7145000	14.8777680
1795.7530000	22.9318190
1774.8674000	4.6685904
1808.3052000	-10.4532290
1786.1267000	24.7828180
1792.3170000	18.4341700
1791.0273000	1.9941622
1793.8221000	-39.6486940
1717.1999000	-10.8107860
1767.1471000	39.6301810
1715.9487000	-12.1385300
1713.1925000	-3.3915243
1713.8972000	38.3003440
1677.4455000	-1.5011930
1692.6687000	-21.9805590
1661.8440000	20.7508910
1706.0189000	-26.3882110
1674.6289000	-18.7633050
1663.4618000	-17.4973170
1638.7764000	25.0941360
1629.3241000	-10.6128880
1635.0437000	-10.2424880
1666.0458000	17.9433630
1669.0344000	41.3813250
1622.6746000	-14.7771910
1607.0765000	-7.9463930
1597.6317000	-34.2442240
1632.8801000	16.0171250
1642.3569000	-33.8187830
1622.6546000	-24.2086620
1586.6944000	23.7766910
1541.0059000	-6.4582328
1526.9820000	9.2135337
1541.8027000	-20.1785240
1593.8060000	-14.8767560
1505.3686000	36.1785450
1528.9123000	-41.6454710
1535.5052000	-23.0737620
1525.7328000	-21.7615970
1492.7857000	-4.5798415
1545.9398000	17.5124710
1537.1025000	32.4720930
1474.6153000	39.6787830
1523.7326000	-2.6163727
1480.5079000	34.5188440
1500.3548000	-17.0845520
1459.5715000	1.9283157
1461.1364000	-17.0603230
1442.0500000	13.7544040
1488.4806000	39.0697980
1412.2021000	20.6417010
1465.0689000	-26.4258280
1461.2229000	-17.4674000
1385.1439000	-29.2336680
1420.9938000	-35.6038660
1430.3283000	30.4404250
1369.3797000	26.1511770
1411.6395000	-10.2506000
1421.3520000	35.3599830
1372.2563000	33.8678530
1364.5621000	-38.2600330
1337.0778000	-8.1615472
1341.3846000	17.4378730
1312.4651000	26.4112410
1372.0614000	-2.3424006
1313.6682000	-39.0335800
1347.2277000	-16.6495090
1337.6911000	42.3730300
1318.4419000	-11.3875390
1307.5085000	41.0966370
1315.2463000	-13.4644860
1332.7414000	-14.5252690
1299.0284000	-14.9508040
1299.9603000	-31.3501980
1253.5024000	-25.5749500
1251.8167000	-7.3998738
1289.1276000	34.2314260
1257.4532000	-27.6169840
1263.8269000	0.7798641
1242.4580000	-12.3843200
1226.2367000	-23.9019170
1234.4131000	-19.4790800
1210.5845000	-23.2470620
1217.3998000	18.7720750
1197.3730000	-10.8538030
1197.7516000	42.3830880
1212.5567000	-8.4661286
1195.4292000	30.7564530
1215.3849000	-12.7012010
1164.5043000	-18.6212550
1165.6786000	28.4622110
1213.4512000	7.9615501
1151.8010000	27.0970270
1191.1864000	-1.9105882
1163.8480000	16.5085610
1154.0076000	-15.6531390
1144.7071000	-0.7831250
1197.4621000	33.4499380
1179.0289000	8.6343494
1130.7235000	-26.5474030
1153.8675000	31.2382210
1123.7300000	-39.9553310
1151.1391000	2.3476709
1129.3346000	11.5765840
1076.5250000	18.8356830
1071.4411000	-42.8773280
1088.7970000	8.3042433
1067.9125000	11.1279440
1062.1749000	-17.9288120
1111.7499000	-26.5935200
1116.5379000	2.6835361
1070.4449000	-33.5562350
1062.9192000	40.7241910
1078.6424000	-32.4666880
1079.8918000	16.9160400
1054.6526000	-36.0704370
1061.4261000	0.8985987
1042.6235000	1.9294300
1042.1575000	-32.7501530
1064.5110000	-42.2957800
997.0569800	2.4897590
1041.3609000	-1.9420665
1009.5614000	-23.6346690
993.2939900	-16.5332850
1030.8155000	12.0787040
1022.9616000	-7.4299660
1026.9151000	-31.7803340
998.2972900	-37.4728470
990.0925600	3.2755849
981.8727500	-31.4286220
961.4034600	-37.8009190
1023.0505000	-26.4652850
977.5751400	41.1053120
965.0352500	9.4175364
989.2450300	13.7440860
927.5994200	36.2234650
960.3334800	5.9870103
937.5362900	38.4885360
950.3259400	31.1768060
916.4570900	-32.3474480
952.8754800	15.3664870
959.4617400	33.0734060
918.9392300	18.0688900
907.2770400	-12.9135340
911.3131900	23.5182300
939.6751800	-37.7705160
945.3090500	-28.0128290
951.4131100	40.4057770
893.5139200	-5.0419368
873.8076900	-17.2797800
911.2603500	-7.7484233
894.4938000	4.2786605
915.9783700	-16.7894990
898.5160800	-18.8345830
872.7937300	-1.2013669
883.0507900	-38.4998390
862.6356200	-10.7498330
880.9901600	-31.1948570
900.3923400	42.0564870
880.9129800	-35.4505720
863.8851800	0.0681674
841.3625600	-36.2255360
821.1013300	23.0979590
885.2104800	31.0121830
820.3149100	-34.9543290
851.2181500	10.9240860
849.1467500	-25.1802810
818.4470700	3.7950702
833.5123700	-14.6428360
863.6167300	-42.8467310
837.8671400	31.6547550
799.7241100	17.4361880
768.6950000	32.2475150
767.1411300	30.2080460
831.2901100	-19.4999650
775.0685300	0.7833402
765.8590200	8.2108751
815.7988900	-31.1025220
781.0641000	-31.7528790
825.0828300	28.3654940
776.0465100	-27.9598080
803.1539800	31.8897120
809.8609400	41.0631660
758.9553800	-16.4072860
777.4576300	-3.7430548
780.4529900	-16.7438870
756.1153200	-30.7269110
725.0965800	27.2598630
729.6792100	20.6188360
728.3024200	28.5916890
731.2604300	-0.5754293
780.4898300	25.6354330
772.9017100	25.8458750
756.8640500	-4.0015057
735.4240800	-0.6745550
729.6725300	37.7028200
705.9414500	-32.7536970
703.5869900	-9.9354223
729.8422600	-14.9358520
750.3815000	41.9308310
668.9511200	27.8758210
695.4030800	-19.9655670
701.7938000	-24.1643120
674.3838200	24.3695680
715.3143500	-29.2220760
713.6971000	-9.6536807
653.2234800	0.0402233
676.8872500	-7.9447848
690.6432000	17.3189080
649.9407200	37.4214030
643.0420400	21.5288180
676.6610400	1.0302290
699.6936900	-9.4020891
632.6324400	12.1806460
661.9434700	-32.2855260
675.4085300	24.4968010
692.6228900	13.1342500
635.6188100	-0.9803180
626.4126900	-10.4986270
671.6921400	-18.9456150
657.6511300	26.8616000
663.0051100	-11.3194650
616.9469900	15.6880640
640.1379700	6.5375519
627.7516600	-41.4199100
600.6939300	41.5476840
619.0143600	7.8055846
668.1749800	-5.9929150
585.6121700	13.7501500
629.5803300	-11.1817880
625.1231600	36.6852780
601.6280700	-0.8291760
585.8736500	-40.0580470
585.0451300	13.1158080
624.8788700	23.4861020
621.2105000	41.3379110
593.9861300	40.4912000
585.0328600	-27.6399470
565.3933200	20.5006990
633.7602000	3.9406111
595.3437100	-30.0000610
544.2319500	-8.8103125
617.2150800	-40.0776010
581.7864800	-19.8487130
602.5215100	7.0031187
605.0120300	-11.3059380
586.8337600	-7.1651045
569.3386900	-1.5730816
526.9655100	1.3686720
601.7567000	15.5132750
594.5016300	37.5692390
565.2113800	-31.4750330
571.9278800	-30.9839230
529.0394100	-40.4998560
588.9978500	24.1990760
579.1418500	-41.7951090
553.1459200	32.7105060
550.3435100	30.6993040
516.2041900	19.7983520
569.2286100	26.9018820
519.4794900	11.3954390
533.3769900	27.3382040
542.3790100	-7.1859960
508.4640400	-37.5485200
547.5292400	-36.1474710
540.8171300	16.3267020
482.9417400	2.3361787
556.9685800	24.9002850
547.9329400	13.3039020
494.3222800	1.8203511
520.8118000	12.8366510
507.5566600	33.7485840
493.9032300	42.0208980
500.6036600	-4.1288662
494.9796400	-1.8922465
517.3855900	29.9388290
520.3730800	11.3373100
477.1414300	22.8166100
500.1213200	-17.0619210
463.4731400	-16.9869360
486.4985500	-38.7029390
455.0322100	-11.4596480
492.4197400	-40.8778890
468.9478900	-19.7272370
472.0432100	16.8640060
439.3747400	-27.7789280
449.2184600	35.7385050
490.2290900	3.8944568
466.9259100	31.6715670
457.3172800	-33.5223130
436.7402900	-0.0444641
420.7645300	-26.8466440
480.4176000	3.5615151
500.6398000	-15.4322990
448.2700000	19.0192550
432.2724600	27.6710370
457.8465600	41.0483930
458.5103500	-26.9702970
420.1753600	32.0296700
417.0141700	-26.7928130
457.9060000	37.6913310
413.0301200	-29.3665780
456.8193300	-21.6746920
402.3637600	-30.5621480
458.8052100	15.3983000
454.2058200	8.4709754
404.5867000	-33.4949420
419.4666800	33.3692770
392.7678200	18.0180670
387.3990200	-26.3487590
382.6687600	-25.1604750
402.0675200	-1.9906859
441.8376000	-22.3262730
428.4601200	19.6693020
379.9844900	30.6996360
403.8550800	8.2359074
398.4969400	-28.3994570
412.8250300	-29.0623350
433.1344300	-21.6512500
409.3101300	19.1180160
381.6036600	42.0238240
431.6679800	-26.3082880
379.8095600	38.7290180
380.1074500	26.3964700
394.0684500	-12.4833090
412.4800800	-14.2013350
361.2597900	1.0498179
386.9152200	19.7732450
374.7980800	-41.5220640
350.0229000	0.1659462
418.3921100	-36.1826180
365.9579200	-37.2528410
418.3671100	19.9283630
340.8306300	-31.5326620
368.3009600	-12.5708070
342.3542100	-37.5887540
339.8587200	-31.6248990
373.4908700	-31.0454610
330.9097700	27.2637420
404.7594200	-15.8459270
328.8404300	35.9943550
332.0070800	31.7776740
390.0511000	8.0601380
347.2086500	-21.8318590
361.7504200	15.8533850
356.8436600	1.9446862
318.3628100	-28.8652510
380.2055700	39.4892580
325.6969800	-24.3617890
311.9148800	34.9159650
387.9526900	-14.1250290
346.9452600	37.6967660
349.9584000	33.6339780
351.9318800	22.4992780
374.4952700	40.4708740
325.7016300	-27.3674320
339.6245900	-33.1936410
338.1434600	21.4562680
316.8240300	-18.7736920
347.7996800	-25.5350250
323.9645600	-6.8509710
297.4857700	-26.1142370
302.1841500	29.1707670
300.0047900	-35.0157450
312.0624400	9.2310961
352.5463200	23.7815610
345.1820200	-30.8963560
342.0733900	20.2858210
325.7494000	25.8212530
340.2457400	40.9612230
293.2185300	-20.1528140
346.1194300	23.9143360
329.4768700	35.2619440
275.1607500	34.9426890
354.4982900	41.7976640
329.4936800	-11.0821100
276.4984800	-31.2218840
314.2958300	0.7055253
276.3274500	-8.1243542
264.5340500	15.1523050
267.1703300	24.4632860
276.8683200	0.3191077
285.8028100	32.7829540
330.1152700	-23.0947490
297.5727300	11.0545420
338.3161400	-40.6902160
316.2523800	0.2795013
304.0510100	-39.8857480
263.1521800	-39.0631640
253.8591600	34.0966450
296.6635000	33.1599170
272.9817600	24.1535430
262.5686300	-33.8028490
271.6508800	-13.2173300
297.6613500	7.7847520
313.1344200	-23.8744740
246.9198800	12.3068900
266.7402700	-29.8666430
270.3683000	32.1875710
281.9131600	-8.6743076
235.6955400	-40.3494570
248.9602200	-21.8041320
301.2318300	-2.1182541
315.5925900	-11.7033510
311.0062000	23.4112250
303.0507600	-6.5370210
264.3639100	-20.6673120
260.1347800	16.7738930
242.3683600	15.7349730
259.9034900	32.3459010
293.6555400	-11.7009780
305.4431300	-11.6673500
262.5703500	40.5849890
241.8540100	31.0364700
290.6591500	4.1651643
294.4478200	27.8528400
220.1284300	37.5658730
234.1591600	-12.7863910
240.0216700	-32.2505830
228.8721700	20.2606910
222.1157600	-29.1844820
256.7742700	-10.8987920
261.6876200	-32.0326150
216.8155100	39.1094880
272.1892800	19.1963010
239.1327300	34.4361890
274.5193500	-30.1032860
240.2958200	-39.5801930
207.0133400	3.7344134
273.0799600	24.8555940
269.3252200	11.3882290
263.4777500	13.5980110
238.7253900	-22.1430290
250.8934700	36.6509470
270.6636800	18.9461110
220.1792900	14.3104630
228.5670700	37.5844050
254.2216700	32.2362550
224.9277100	-23.0413870
241.3808500	-31.2042630
215.2338700	-15.2146150
253.8003200	0.6917540
237.5396600	25.7547780
210.5056700	29.2415970
254.5274100	29.0972050
191.4063200	-38.7944360
261.8192600	-39.0792850
201.2506200	-17.3525300
202.1324800	41.8126530
255.7768500	2.6303694
244.9211900	33.1438910
246.9537400	-15.8093210
237.7884400	23.8369820
254.3223700	-16.5779810
194.0457900	4.3999279
244.8608600	-33.8940620
248.3336300	27.4127900
188.7195600	-40.1464870
211.3634900	25.0194350
226.5894900	-20.5077940
212.4953200	-29.7778330
238.3037200	9.7377154
227.4553500	-23.4713020
167.6924700	21.3830210
222.7375900	-23.8532730
203.1710200	-14.6762130
204.6890900	-27.8954910
232.0276900	25.0167840
228.2618700	7.2970500
234.5429900	23.9157510
201.8738800	-33.9352580
203.1643900	-0.5131862
216.1142500	-10.3625520
203.2737900	10.0745010
211.4012300	-27.1378450
171.8055600	-6.8658306
234.7532600	33.0864760
223.9626900	32.3851860
185.3487500	-5.0133938
170.7907900	32.9227310
187.8198900	35.0968700
192.0820800	32.6722860
184.1507900	-12.2349870
151.2761800	33.7550580
193.3142100	-27.7392330
177.2600500	-23.0313480
190.8382500	-24.0495750
159.0983000	-38.0698020
223.9266300	22.8163810
221.3232800	-18.0384250
156.8162300	35.8269870
212.1223300	-31.6783450
195.8367700	-36.6859230
189.4049900	28.9394030
173.2999100	20.9371910
134.4698000	26.3534900
212.3814600	-17.1602980
187.4794700	31.1264010
204.7732500	4.5378230
210.5428400	40.4290220
173.6736100	-7.0832416
170.1468400	12.8930240
193.2241200	8.7470185
205.0761300	2.1782994
129.4467100	30.5456630
202.0698000	-29.5915580
182.4982300	-34.3573990
157.3142500	15.2602670
164.1755800	18.7941920
125.5135200	-12.5820440
165.9363300	-34.8998950
133.9616200	14.0654730
140.2561500	-12.8336260
176.4178500	-19.6680130
182.7143400	42.4031020
131.4540300	12.2930760
194.4058300	9.3472108
179.3328200	-19.5761190
123.7447000	-4.1285387
197.2291700	23.4584420
145.7596300	-2.0960978
198.1645600	27.4302130
128.9175000	15.8842050
185.4913400	-17.1699580
174.9368200	18.8831420
152.7076000	-15.4547410
186.9727800	-0.0763333
135.4891100	2.8151837
144.9690700	-6.5183796
173.1851100	26.8854650
180.5491100	3.1324471
152.1027200	24.7310320
149.6019800	-32.4426660
126.5199700	5.4039201
180.7368000	-6.1527933
136.7740400	-40.6554960
106.8966900	13.0324620
122.4284400	-28.8030360
170.3567100	-41.7367300
109.2831400	1.2058920
121.5327800	-40.6578710
103.0318900	15.2948490
112.9542700	13.1915250
162.4806200	17.1143390
175.8443500	-6.4382165
126.8424500	-17.2670800
118.0923900	-19.1026410
138.0171700	-1.4566713
168.8635900	29.3783810
162.8230600	33.4412240
148.0174700	7.4122231
103.4558900	-4.9723327
105.5486200	-10.8912230
166.1710400	20.8209830
105.2952100	-34.9364090
168.5312700	15.5255550
144.2662700	-25.2920180
89.7687620	31.1764250
145.3212300	22.4570760
172.0208900	21.1255440
171.0744200	21.9479220
129.3330700	-29.4350200
165.2762300	20.1368510
170.3369100	33.2046230
125.2579200	-36.1470870
110.5825800	-38.0048570
96.9950000	0.8676398
124.0732300	-36.4143930
127.7615300	10.7985520
82.9627500	10.9782850
150.6129400	-18.9707260
152.8872800	-29.5893700
125.7794900	5.4147435
135.3986200	-30.9711200
164.5661400	2.6268803
153.9152200	19.5253360
104.8146800	-12.9685440
99.2892850	-29.7108510
125.9063300	-9.9122099
120.4304000	-21.5308690
155.3845000	18.0835930
112.3125800	35.7952640
156.4469100	27.0416370
146.7513000	39.5130690
147.8866600	-19.4571850
103.6721600	24.2386880
157.2130500	-14.8219410
101.9318900	-33.2458900
90.8345720	30.0515970
120.9622400	-10.2263940
109.4006700	-7.9253917
116.7872900	-38.0952590
115.3336300	-15.2525300
96.6911440	-35.0137390
68.4176020	12.3143310
146.0647800	9.0601397
90.6156340	27.0868070
139.5399700	10.9065970
96.4603230	8.8846167
103.6468500	-7.5147819
80.8142930	36.1970390
135.3845400	10.2923360
91.2407880	-1.1351915
69.9010750	-25.5510970
110.6899600	-23.0493110
133.3457900	13.3290390
128.2484600	3.0519228
146.7859300	-37.0281260
81.5536720	-40.1278070
93.0982970	-0.7421114
94.9906150	-19.9971140
96.9393120	9.6172620
68.9912240	37.9405050
124.2051500	31.1514650
104.9282500	-5.5203154
69.0782850	23.7712940
90.6523030	-20.8655880
114.1052600	4.5345384
99.1191830	11.5158160
104.1317500	11.5746420
130.9693000	24.2224720
133.5926700	7.6783943
131.5810000	27.4749590
79.8405000	-37.8806420
78.0388870	14.0502210
125.4596600	-15.9166490
88.7292980	-13.2435600
93.0030220	1.8249750
107.7642400	-21.7201990
119.2058700	-16.1402390
62.5991470	25.5460320
103.8229200	2.1074655
53.6411280	20.1418560
92.8043450	21.0571240
87.5116520	-30.2397410
99.2406010	-36.1955420
69.8879100	-35.4816800
87.5239630	23.0351070
107.7083700	22.9634680
113.8287700	-1.5419718
92.4446500	20.4729630
93.7870460	-16.1290720
50.8781330	11.7012350
87.6365390	-4.9819213
54.2650980	-10.7404270
102.3475100	-32.9987110
104.5220100	38.3694330
105.7826800	-37.3235310
85.5647990	-13.6112500
84.8166990	-5.0742345
73.4536310	39.2218660
45.8032140	-40.5218940
112.0331100	20.9928140
58.8721240	23.9667060
80.3382920	-13.1213640
57.5190760	30.9561360
42.8137650	-17.8915930
72.4802360	-13.7822440
69.0713690	29.9281930
83.9098460	-40.8837360
68.9399750	-0.9680024
116.2729400	-28.4455980
54.3747560	20.8014880
59.2662530	16.4396890
45.1672200	16.5245160
64.8257810	40.5153360
113.0826100	28.1067800
51.6351410	-24.9348450
89.5303510	-5.2284863
83.7145260	24.8683130
39.2506580	39.0643750
93.7303730	-0.3224398
48.9399900	0.2397246
36.4467460	-2.6886695
92.2785430	-1.7071785
66.4684880	26.7906110
108.7482000	35.3425610
98.3843220	28.5813140
64.3611180	-7.3703668
49.0642930	-13.1542250
37.2905390	-2.4352870
38.8149070	34.9405600
79.6429710	21.5765180
34.8083290	-11.4853690
97.7169330	0.3284647
89.1831600	-26.4936830
78.6203370	-24.8476700
106.5734900	10.9703990
42.4250940	-11.6743160
83.7639610	-4.8644879
113.3676100	4.3934398
41.5296760	-19.5831760
91.1636320	-37.6830510
51.1999890	-6.2734813
102.6115800	16.2522600
49.4321750	36.7474680
56.2496330	26.4875410
32.5216540	-6.0095310
41.2066730	1.8954004
55.5110670	32.8835660
90.1522870	10.4183830
50.7777330	-33.8132430
69.2186080	8.4351651
77.3879770	-7.1698678
88.3283700	30.6178290
58.2083190	4.8853245
98.5419630	4.4086403
81.3873300	25.0670400
55.3744660	8.9778699
41.5692460	14.7304670
56.1798420	41.6727000
59.5720510	-0.6145209
104.8401800	26.0588110
59.5612290	30.3042020
82.8521230	35.6468440
73.6711750	42.4794560
37.1464630	-0.0051369
52.4840740	-23.3285450
38.3213450	-3.9564088
36.4333370	33.7915570
22.0282940	35.6610680
20.7709910	-34.7985150
39.8089140	-18.7590860
56.0721270	16.7938340
34.4714430	-20.1223230
80.0607530	6.9391415
58.2707770	-32.2716460
28.8264330	18.0391280
26.9361710	-6.6645580
95.6674570	-13.3607570
41.4250780	42.1054770
81.5281770	-30.7929270
86.0045420	3.9709087
22.7026040	-26.5296460
83.6799300	38.2558910
50.9420900	40.3602520
14.4117590	-41.5900120
53.7524650	35.7164120
87.3155100	-37.5013290
89.7483790	20.2204600
78.7517870	-5.8290971
65.3999660	-34.4404370
36.6563530	-5.0604838
52.7795940	-19.9924860
41.6789440	19.2952590
24.9032730	-21.1876270
41.0296730	-0.3464301
78.2915010	8.5149337
57.0477210	-25.4586060
78.4842210	40.0832930
93.0430310	25.1593630
25.6616710	-24.6323260
63.9111100	17.0015820
53.8833060	-17.6353300
73.0284670	40.4459920
45.2309780	-20.2295430
26.6236700	34.3538940
93.6724270	32.9365520
42.5565740	-16.9842970
56.0734730	-42.2405530
80.3068160	18.7933440
26.8298290	-0.6837782
51.7829400	0.0202543
13.9649470	-38.9268540
49.9157780	-41.2381490
58.0701290	32.6233880
36.5697070	7.9144807
88.9581440	14.0858580
66.1955780	20.3613330
29.9311920	37.2635650
7.1712041	34.2439470
6.2022060	22.7642120
39.6245060	-15.6307000
6.1792829	-16.5140540
35.4861270	-1.1296942
5.8335069	-21.7281170
40.3725050	36.1887090
53.7014450	23.4743960
50.9337740	-41.5239270
66.8633480	15.7641660
55.0996500	2.7958819
7.4426735	-21.9006990
86.6829150	1.8214804
57.3599390	-27.0827890
13.0764100	-6.2289093
78.9295730	35.3540330
66.5322690	-3.6956071
70.7287740	33.1255590
41.9602970	-4.7791573
82.8653190	23.7652320
28.4237950	29.2234880
36.5102060	-28.3623960
41.4102930	-39.0100650
81.4649330	34.0593520
67.0485740	-1.4653339
25.8604090	34.1083590
46.5491760	-27.0799650
53.1222200	38.9642770
29.0106390	-12.0641590
34.3754900	39.3087570
6.7477342	-4.6175397
34.5829180	29.6933220
37.7513120	4.3956489
9.0358570	-3.9826410
15.7354600	38.0789660
35.4996180	19.1714970
83.6641710	-40.8481950
2.6600912	25.0217760
83.0999610	40.4072970
64.6523160	-17.8893080
1.5343037	21.1448990
22.2820750	0.0978573
49.3719300	-21.3061980
69.7748070	-18.7790120
53.4990810	-0.1557484
11.2887310	-18.1173530
52.8621760	-38.1792520
46.7937070	-8.8060248
6.9315789	-35.4364660
45.9646780	-36.8073460
24.0965300	8.4807019
5.7653587	29.4510530
15.8064280	-9.9308579
61.7652680	28.6049680
47.6731540	-22.4993360
39.2624540	0.1815441
9.4731190	-16.4993770
71.1201840	29.9991430
68.5437500	-33.9228900
60.2025690	21.7762690
26.7104170	14.0853000
-2.9893365	19.8069450
34.2394830	-15.1961690
48.3191960	32.8171020
55.1961860	40.5879520
17.2806180	23.6260880
68.6349590	-5.6736076
62.8473220	-18.8934290
26.7835650	12.6917640
55.6171740	28.9631130
68.9250510	42.0597060
54.6018680	-7.7559423
14.6806510	-11.0854040
44.0013170	8.9197819
71.1766540	20.8607340
12.5519270	-18.0082210
-6.4203558	20.8492250
11.5370100	11.7737060
25.3646550	-37.0045010
0.5300251	-19.0265850
25.3997630	-33.7489440
48.3086390	-5.6529280
73.6032620	-20.1787100
57.5491110	9.8574193
19.8860720	-12.2195530
34.7001210	-19.7848670
65.7832960	21.9543920
31.3382720	-3.9397284
45.4928060	9.2435454
-0.4653889	26.7595820
43.2228370	17.0009950
52.2437460	15.5316650
33.7514460	2.7867757
35.9316260	-24.8099970
-9.6065239	8.1868065
-6.5228863	-33.9525910
37.9588120	-19.3604470
21.3332240	25.7863490
67.4457290	24.3977050
52.6479620	29.4121110
20.3035140	16.7752980
-0.2471678	-40.6229570
6.7617742	37.2422680
43.3676580	-38.9474760
65.3287090	40.3018590
34.5917270	-0.8657538
-12.3578650	-27.8173930
-2.9594876	16.5770190
17.7086520	-41.9595350
12.0956490	42.5795200
71.1102130	-28.7800950
-7.6358981	41.5346620
33.0248710	-22.4160790
48.2546800	12.8640420
47.9906030	26.7413330
-3.6768533	-2.2401703
7.4074042	-12.1943130
53.7792720	12.4872510
68.0643450	26.2491230
62.6511680	-40.7941960
47.3000870	-18.3053140
-8.1231314	-0.3592525
58.1502940	17.0547870
45.5999440	-23.9612380
-9.0636335	20.2345590
27.6894690	14.7367180
47.4905070	36.1872890
42.2533820	36.6290860
59.5255840	14.5097710
8.3879863	37.5604530
63.9174880	26.1930700
61.2320040	19.3100190
8.2741237	-18.4291670
24.0776790	-6.8759678
27.0784030	24.9598440
28.3298470	-26.4413630
15.9635420	-36.8652320
-12.3737570	7.7283810
38.3848690	-2.9937585
56.3574610	-24.7703550
-10.7341860	-0.5346351
60.5454790	-35.5543920
-17.5125590	1.7195944
4.9084747	3.3283699
8.2029394	14.0314540
13.5587580	-39.0945270
36.2847690	-10.4059550
40.6336230	-6.1317836
50.6218290	30.6061740
41.4924200	-3.3012677
-3.4963847	17.4728590
27.1930510	7.9606901
-6.3531875	36.2523390
48.3497790	39.5131770
40.7267780	-37.9970500
36.5341560	-20.7378790
26.3932930	14.5644970
-4.2906994	11.0760030
-12.7982930	-22.8715770
31.3075850	-19.9520270
60.3011400	-4.0189931
37.8084150	21.5935680
60.2348390	18.7445550
51.3350650	12.9046160
57.3257870	-32.3001350
-18.7172480	-7.9817942
25.6143060	33.4358560
-13.7245300	-12.9412450
-5.1536325	4.4045420
-0.1011885	-22.8667290
28.3067410	-19.1301920
40.0586910	1.9009375
58.5250930	-35.7918080
26.6724060	20.8398100
-3.2833406	26.2124920
14.1160850	-1.9942779
-0.6540138	-24.5172900
1.4131806	32.9834480
-11.3364400	42.4406570
17.6350430	41.7146660
11.0374100	-9.6055862
-17.0877450	-19.1939950
54.2840100	5.0022647
18.0050410	-35.3945180
8.4701922	9.4552949
55.1682400	3.7044833
44.2760710	-31.0848870
-18.9903310	-7.5109355
-16.1550860	-3.5158752
53.9725020	-20.6673630
-7.5610251	-42.0983450
-20.3152060	-32.9628600
38.5781100	-23.5814180
26.3583430	-0.1634104
41.8363210	30.6083020
41.3762150	24.3710860
45.2041370	2.6933974
-7.7389930	-19.1940790
-21.6655780	22.1686920
9.0667214	-11.1800740
18.4541010	-25.7252080
34.3847980	-41.6414990
-16.7193550	23.0562880
57.2125990	-34.2657620
31.6893130	35.4431200
4.8264428	23.6232420
43.6503080	-39.2193970
6.2113711	-36.0786760
47.2879190	-40.4506290
50.5820530	13.4098350
30.7502910	38.9358810
-18.8360020	-37.0969000
35.4817930	39.6425690
23.7803470	28.2903420
-18.6562630	-39.5547850
-24.3373280	-38.7850140
-22.1507880	-40.5667090
30.6640290	15.0849810
17.6926550	8.2391665
-17.2763380	-36.0821480
49.5915080	-19.8492370
-1.9281042	-3.7027200
-5.3158203	-21.7332270
22.2999930	19.6964610
18.4153570	-23.2019240
-24.3050220	17.7677880
-17.4726170	28.7871930
48.0871580	-1.8778756
10.4617470	33.6997400
52.7756450	2.8945853
-3.5532965	11.3378630
33.2131180	5.2320407
38.6100750	-24.9184830
1.6928086	9.6003738
-2.4473697	-27.5283370
23.7011620	-18.7791430
43.1500690	-32.6152900
-13.1583340	-29.7123410
-25.2204400	-3.9712489
-26.4497120	8.2468734
-17.5427610	-35.7582620
-19.1168710	-32.5900780
-18.2014820	-34.6113440
32.1239830	24.4564220
20.8775420	29.3161540
43.3565790	-10.9001780
-21.0489930	8.6791774
33.0148400	41.0803060
-0.8488891	41.3740690
24.4480500	-5.8714436
21.7894240	-25.3031380
10.3719650	-9.1835308
-5.6815380	-14.6148770
43.4308090	-23.5020400
4.7601262	12.2371020
7.4759462	15.6549480
13.1086130	12.3722870
17.8092630	1.0206731
6.8525171	22.1886390
28.7023120	-28.0400840
56.4975640	38.3048930
25.1477570	22.7159120
-8.9758040	2.9972198
12.2834190	-0.1059238
52.7705540	42.2228410
31.9148060	14.7775960
-19.2059160	39.2988290
-16.1361270	-5.9941655
52.8572010	-27.0462740
34.3558490	19.2149880
-25.7951820	22.0496050
30.6110030	38.8704030
29.9749440	-4.0692454
54.6841080	-26.1517170
1.0333426	17.2457350
26.2571450	31.8024750
14.7835810	-38.8697680
-18.2288780	34.2362600
3.7556183	-5.6785216
1.4350761	41.7587790
37.8601200	41.2369660
-7.1287382	32.4832610
-26.9391860	-10.0861700
39.9244750	31.5331560
38.8414130	7.0648517
-4.9663723	22.6825850
-9.8065318	-38.5137470
27.6594360	-23.0538160
10.1304520	39.4343670
-14.2399160	-27.4046780
40.1448290	-19.7426360
38.3236740	-12.7317440
13.2462470	8.7214941
14.4071350	1.3177829
35.6361330	7.3403118
46.5024770	-37.9357910
9.9716737	-16.0149540
23.3103780	-41.8931260
-12.9141850	-17.2937270
46.2369800	-17.5651310
23.1625310	-30.2364830
-19.4989850	-24.4602870
-25.3113280	34.5611710
18.0785880	15.3343210
-13.0681960	32.8312460
50.7865900	-3.7220465
0.2435097	-28.8412800
-11.2483000	27.5990230
-27.4024350	-23.6703810
37.3621420	19.7072030
-5.4989732	17.7981210
-27.7267570	4.9439453
28.8348040	-31.5685940
-29.2845590	-7.5660472
11.9728780	-13.1321020
38.4881790	10.7329570
-15.2559170	22.4112290
25.3277620	23.3909680
-5.6258104	35.3351090
25.3273580	13.0078780
-3.4294111	-8.2800578
10.9063570	24.4860930
-19.3576060	-8.8991156
53.1423630	28.1302140
17.5264180	-41.9573210
13.2004460	-8.1993985
-6.9432831	19.6802370
24.4892760	-14.3177050
39.1668620	-6.4987874
11.2733720	-23.9653790
-16.3835190	-29.2274320
33.8373490	-24.1803390
27.0470670	-13.5557660
-8.8760419	32.8396130
51.5000980	2.1662704
48.2433180	-7.0459637
51.3834890	24.1824990
33.4014150	-11.4486670
-5.2092624	1.6796634
-1.1345223	-39.1094300
-21.3177970	18.9274570
34.1446440	32.9070850
19.2091860	7.5870973
29.2127580	-22.3300160
31.3352770	2.0594684
-25.9722820	20.9951970
-13.5449920	-10.5346460
-22.5271170	-25.5525310
-26.2555470	13.1219140
15.9609220	23.1737710
18.2140520	42.7190040
8.9678934	-38.5554060
-27.0596340	12.0202060
-10.4698940	19.2716680
12.4281150	31.9608120
-16.9023880	27.0038960
-28.5159160	-18.4767090
43.1239740	-14.9704270
-14.8162280	-0.8522732
6.6459167	-24.6256230
-33.4196780	6.6958233
-4.9742213	18.4645820
-28.3558370	-18.0647430
0.9684705	-14.0862980
31.2214770	-5.0140513
3.3982501	-17.7992640
30.6967990	-17.7171310
12.6197170	-31.7683010
-22.1902120	-39.8608000
44.4262150	-21.3400370
-3.7134323	34.7322940
7.5311065	-41.5096140
-5.1661385	35.5892300
44.6253120	26.0002920
-23.2418000	-15.4585860
49.4716770	-9.7759480
-27.2100440	11.6113710
7.0378661	10.0278740
-19.5447850	-22.1036220
39.8235190	15.3477320
24.6595060	-14.3455060
17.2131980	-7.8030660
-13.9316370	1.6888738
-16.0167670	-24.9673260
-13.5221240	33.3876820
19.9402890	-4.1668001
35.1404570	4.5429510
-20.3800730	30.7940690
-2.2469387	-38.6396870
22.4156600	-30.0676380
22.3407300	37.1298980
-12.2295100	-1.7284327
26.4907430	9.3489605
27.5645530	-12.1756200
-14.7765920	19.7436540
-30.1803120	32.3698560
-4.0131849	19.9769030
-13.5311750	-24.4057240
-3.1855559	13.4667170
6.1991646	-40.4427510
-12.5313850	-38.8537510
-5.3557362	-31.8190020
32.6410700	17.8045880
-10.2537290	25.1803330
-8.7339479	-3.6037284
-14.4072080	27.7928780
27.5051520	-32.8496940
-20.1319730	-5.6427551
-3.7393359	39.5417400
20.4330440	28.9302580
-2.3327509	25.7350440
23.9980370	-4.7192379
-12.7585310	-38.2984930
-9.7111816	16.4306700
-27.0620730	40.4651180
-15.8281670	24.1765730
2.2291178	31.8749190
44.6018880	-15.6761090
19.7266190	-42.2599940
-29.5517830	-42.7435800
19.5530440	20.8499300
4.7671313	40.7803330
11.7115460	-9.1923158
25.5853530	36.0284020
2.1021073	31.1039520
-2.9927296	12.7672580
2.2486408	15.2728920
-1.3820366	-42.0838920
41.4063920	16.5497170
12.1081020	-4.1748160
-10.8606770	4.2888436
39.5277300	35.3205580
31.8143330	-40.7365140
-4.4637094	-3.2731246
19.6548260	-18.5652690
-12.6979210	6.7247502
3.3195462	20.1865960
4.3711835	-16.5414630
7.5889623	-21.8390290
5.5961195	32.7106970
-17.7571620	27.2392880
3.2958713	-24.8595910
30.1994040	20.8793290
-36.5338270	15.8799860
17.0095080	3.3663673
31.1702110	2.3719259
21.4817310	27.6170970
23.1088160	15.0243460
9.2619873	-41.5192230
14.3597540	-11.1280290
15.9981300	-34.5994590
9.6443760	14.5955960
-14.8492770	0.0141498
41.8014940	22.7444980
14.8041120	42.5107980
38.0761530	22.5489370
33.0526000	6.7378064
21.4701030	1.0922063
13.4547490	31.0072540
-2.3788869	14.4733980
2.0647548	-10.3690290
2.1126179	23.8948880
43.5562810	23.0293140
-8.4153780	-38.7579070
-15.6834530	28.0632490
32.0604030	26.9894560
-24.6868210	-32.0591860
23.9897670	-14.4956930
35.7097030	-42.6116980
-28.9872110	-35.7839740
-15.0297060	41.8717070
3.9639559	30.8334880
-28.9698790	8.7184376
16.5825170	-19.1658010
6.3615039	41.1885950
35.2544120	-39.6853490
-11.1889840	23.9385520
-30.7023300	-38.4532440
-21.6968870	32.0309110
-20.5096380	23.0431890
-9.6906282	14.1761220
-34.4160210	32.1973390
-34.6045250	14.5562480
-7.1376774	12.5753380
-30.9888880	7.1873591
7.8473753	-31.6024020
-20.5450330	2.5746696
0.0760377	-8.4986742
19.6611180	8.1537326
-13.8157620	3.2295530
42.2683330	20.8030190
-34.5242740	-38.8081410
4.0847293	35.0927170
17.0730930	-2.1948691
28.0574480	-26.2901110
-7.9575233	-30.8180320
14.2926710	13.3699900
2.7177908	9.5540281
23.9786280	16.6158550
11.3439700	-7.5470608
26.5339370	-37.6420450
2.2969152	11.3492230
25.0426570	4.5090251
-27.9671410	30.6694310
11.1234930	12.9014000
-20.0142230	-39.2662370
-1.3607517	16.5638890
15.9436080	3.8699381
22.0410530	41.0396500
-1.0538792	-1.8962769
31.6465860	-28.2292630
-17.0188030	22.7642770
0.0159302	27.6876260
11.2879570	-3.7239278
-0.1474597	18.2410210
5.8253246	-31.8167060
-33.3569250	-7.4233846
19.7330620	11.6159370
34.2144370	31.2871830
36.3887070	-7.2627943
18.8481880	3.6838328
25.6356630	-6.8741771
-19.2170490	11.9720800
-9.2959741	-39.7952360
-29.3430790	-27.9537020
5.0307490	31.3422790
-26.6664040	-28.0377760
-6.6977995	-37.7377800
10.3885750	24.2016730
-32.2219280	-34.4344540
20.4260520	26.3744690
42.8775960	-32.5558360
-6.5336298	36.7461080
39.1952000	-7.3380338
-36.6476510	-13.9314630
28.0590800	25.6897010
33.9106670	3.1748641
14.8677530	-34.2846370
-22.3133010	-17.6770150
20.4214280	-6.0277569
17.7509600	-28.3052480
16.1438710	22.9215090
30.4834750	-6.2560428
20.5253690	-20.8854360
30.4702970	19.6192880
12.9445540	37.4572240
37.6446760	-26.2265210
24.9668090	35.4077130
32.9942830	-28.6515430
24.9956770	-40.1314890
16.3324770	27.9193410
13.8361430	3.1495907
24.9198460	10.5574240
-4.7554208	8.0345518
30.6923010	-31.6834600
14.8161550	1.9933426
23.7396470	22.2089030
-2.6006965	5.7849849
31.9972380	-24.1993850
-35.1809740	-29.9770120
2.0782143	39.4469460
