jMRUI Data Textfile

Filename: dataset12_nWS.txt

PointsInDataset: 2048      
DatasetsInFile: 1         
SamplingInterval: 2.5E-1    
ZeroOrderPhase: 0E0       
BeginTime: 0E0       
TransmitterFrequency: 1.2322E8  
MagneticField: 2.9E0     
TypeOfNucleus: 0E0       
NameOfPatient: dataset12_nWS
DateOfExperiment: 
Spectrometer: 
AdditionalInfo: dataset12_nWS
SignalNames: dataset12_nWS.txt;


Signal and FFT
sig(real)	sig(imag)	fft(real)	fft(imag)
Signal 1 out of 1 in file
49899.0430000	37.0888910
49723.7000000	-68.1060230
49539.2880000	-18.6888440
49255.2730000	84.2614070
49045.4140000	-78.3810100
48828.8430000	54.2464490
48570.9850000	-59.3801420
48355.0120000	31.7320770
48164.4170000	20.6835370
47832.1490000	-14.5012350
47660.9400000	-26.2671080
47364.1820000	-74.9951930
47199.0660000	2.1708367
47049.4490000	-82.1306170
46777.0950000	-61.8887800
46470.3540000	-13.0976990
46271.6340000	-15.7046550
46117.7680000	-33.8925750
45943.3470000	75.0629340
45662.5950000	84.9373430
45519.8620000	-72.5746700
45244.8160000	-1.7403005
45048.9970000	72.9705520
44834.3710000	-69.2876300
44588.4710000	-23.0906790
44307.2590000	43.5486470
44110.9410000	3.3843844
44024.9740000	56.1938280
43782.1270000	9.6805046
43495.2210000	77.0874480
43379.2410000	8.8665158
43068.6420000	18.6814900
42894.6000000	84.0115150
42815.5810000	-81.3613640
42540.2200000	-44.3278660
42255.0270000	-37.1819200
42206.5310000	54.1209010
42000.7190000	-60.5950690
41689.9300000	19.6765380
41496.9920000	-73.3680540
41351.8560000	-68.4105520
41187.1740000	1.6865780
40911.3270000	-85.3526980
40759.3200000	-59.0515950
40546.4850000	1.6395083
40416.4080000	50.7515020
40184.9910000	35.3327440
39938.9200000	23.1184960
39848.4070000	-40.1153910
39579.2910000	80.7301670
39489.9420000	-65.1413440
39187.7510000	84.1030570
39046.7180000	-37.1304930
38895.1560000	-37.3805490
38709.9190000	-49.2441510
38504.7390000	-33.1550450
38328.5430000	70.0245140
38163.1980000	57.8397600
38017.5730000	-65.6014770
37793.7790000	-78.4602100
37717.2930000	-35.3182190
37486.6320000	71.4505010
37223.5140000	6.8680305
37046.2960000	75.8114890
36932.1900000	65.9844300
36700.3360000	18.4266470
36524.7290000	-62.0881390
36456.1880000	41.9546780
36226.9130000	-52.6514960
36108.4240000	81.8300040
35836.2600000	-19.8669120
35746.4110000	-85.3852760
35553.1000000	-85.3053340
35312.0230000	-50.5936880
35187.8370000	13.5292850
35107.1580000	-85.1266010
34935.3990000	78.9166090
34759.7710000	85.3310750
34642.5060000	-4.1081912
34362.0920000	16.6799660
34183.8870000	4.0230266
34063.8170000	37.7242670
34002.1000000	-13.3644250
33779.8830000	24.1015280
33555.2100000	-66.7027720
33368.8130000	-56.9646620
33266.6460000	35.3557680
33100.5700000	52.6746410
33043.6400000	-21.3077700
32796.9710000	-13.3666740
32742.4140000	-0.1018177
32452.6030000	-50.6684040
32389.9780000	82.1511390
32186.0820000	46.5101390
31988.3160000	76.1546250
31900.7550000	-27.4806580
31816.3670000	50.7310400
31585.6950000	-35.1207880
31418.1780000	-49.1105260
31240.8780000	25.3714500
31219.0610000	25.8552210
31001.8220000	34.5217830
30851.5290000	37.8619500
30651.8470000	-65.5809140
30579.0330000	37.8176810
30516.8250000	-71.7501830
30275.4000000	-82.1022120
30142.4760000	-49.5226890
30073.4000000	-15.8863440
29790.6790000	-22.4894510
29785.2180000	44.6329250
29623.8660000	59.8484680
29479.1180000	-47.1685710
29307.0660000	-16.2380810
29262.7720000	35.4001300
29011.7120000	45.9901650
28900.0410000	55.3452730
28848.4870000	0.7460292
28693.2850000	35.9517700
28531.9330000	-24.1831510
28297.1410000	80.4038500
28306.4360000	34.2695290
28031.4230000	65.3652160
27958.3280000	-74.8121810
27799.1170000	22.4728610
27735.0760000	-37.7911980
27659.9790000	10.3884560
27523.9390000	85.1201620
27272.9160000	72.8194820
27215.5030000	-85.4891180
27024.4700000	4.6774603
26933.2830000	-80.1414110
26758.4430000	42.6025690
26721.0960000	-9.8762258
26610.7550000	34.8360010
26403.9440000	62.8306950
26295.9530000	-8.8160898
26231.1590000	42.5866480
26077.9710000	60.6269440
25974.5930000	-56.1721780
25814.1240000	81.5107650
25661.7050000	9.3567005
25623.1820000	-35.2583940
25490.8910000	49.7592370
25254.2860000	-83.5673080
25153.2830000	-6.5279301
25123.1880000	61.1223830
25056.1650000	24.4064140
24778.4590000	-84.2731850
24816.2990000	46.5598820
24660.2410000	-0.2336242
24441.4780000	-74.5153480
24311.2180000	-61.2307580
24269.5470000	61.1522990
24176.1850000	-42.4297870
24108.6510000	-38.2404650
23912.1140000	-19.1648830
23900.8480000	61.6959790
23700.0800000	-29.2117760
23532.4520000	-51.5245330
23571.2380000	-45.4970870
23382.6070000	-49.7575590
23195.9340000	27.0996500
23179.5650000	17.7989030
23016.0120000	36.5410210
22971.0570000	44.6059200
22814.2700000	67.6708610
22739.7660000	-8.9476901
22553.3940000	-21.7670200
22582.9850000	-4.6771386
22492.3130000	-2.4598491
22312.4800000	27.7860090
22163.1030000	68.7548840
22164.5420000	82.0217040
21951.5290000	-52.2775170
21934.9270000	-66.0205660
21713.8710000	-79.5570170
21699.8870000	36.6185410
21633.7280000	-43.7778470
21546.2870000	50.5179300
21391.8940000	-70.4511410
21292.6290000	-30.0245160
21258.6350000	-3.4057505
21015.1870000	-37.8819540
21011.3160000	-8.7548562
20955.7580000	-1.5130352
20823.5200000	40.7119320
20718.8630000	-10.2222810
20509.9210000	22.7085680
20562.5670000	-59.6627060
20360.9110000	-46.5910090
20245.6310000	-78.5481860
20121.3920000	-81.8686450
20151.3380000	17.9658960
19999.1570000	60.1275520
19923.0770000	-3.1868469
19891.7020000	-0.2414949
19772.5660000	-32.5394510
19691.2130000	-36.1615620
19553.7930000	20.2439630
19445.4780000	40.4991530
19412.0960000	-46.4566610
19225.9230000	-74.5411760
19251.0970000	-65.6420520
19174.4050000	-16.3005030
19072.1070000	-19.3894410
18961.8030000	-39.8684140
18846.3290000	-62.7793510
18767.3330000	-8.9488203
18618.9760000	77.7204650
18529.2550000	83.2909110
18481.1630000	-49.2600170
18363.3420000	-65.1621810
18376.5720000	-31.4908360
18245.6240000	56.3779900
18048.6780000	-78.0747620
17992.4620000	72.4054540
18018.4620000	-81.4106700
17794.2270000	12.4580750
17837.1330000	-62.3165020
17752.6420000	55.3344850
17660.5480000	-33.3376910
17565.1330000	-62.8585280
17505.1490000	71.4989720
17325.7170000	38.8270780
17208.4360000	-80.7472790
17286.1880000	55.8543740
17095.3940000	-12.0212940
16991.1230000	-23.7017890
17017.7470000	-70.8099560
16819.6140000	44.7978640
16860.5150000	15.8166350
16659.4560000	-23.8464790
16651.6440000	-67.3293400
16536.6700000	47.7150870
16569.6280000	50.5851840
16464.6460000	-81.9935960
16408.2100000	68.1987980
16278.0870000	-7.2808667
16269.0770000	5.1189304
16041.3260000	12.9542670
16116.0390000	22.7972720
16025.7470000	48.0858360
15923.3880000	11.6916140
15844.4390000	64.4066030
15714.1200000	65.9721820
15669.2190000	-22.2379370
15641.1750000	-3.5817201
15601.0850000	39.8139150
15425.4660000	82.0068130
15365.0640000	65.4300100
15333.8620000	8.2076467
15180.6800000	65.3262540
15100.2360000	-66.3307220
15168.2980000	37.6076030
15035.0360000	-1.1471279
15020.9590000	58.0992110
14811.8630000	-67.4618620
14804.4940000	-53.9033370
14679.5060000	-7.4162237
14625.3360000	-39.1998570
14613.8390000	-25.0062340
14502.1130000	-84.4800060
14396.7370000	8.2459180
14391.0300000	-18.1876560
14275.1520000	-25.5617230
14231.7140000	-56.1945650
14130.1780000	-67.0313850
14133.1400000	39.0923280
14134.4980000	80.4192040
14053.1120000	-14.8160320
13953.9430000	-9.0066621
13819.9070000	-3.7262082
13831.6280000	-14.8244610
13649.6770000	29.1167850
13583.2930000	-40.2509010
13684.2540000	5.5412102
13604.8300000	-9.2660644
13420.4680000	-31.3777490
13409.0990000	-10.6185740
13355.6220000	1.7420674
13263.8520000	43.0734740
13137.3250000	-11.6670500
13183.0830000	-35.7048880
13069.1180000	59.4488100
13114.0490000	-57.0915460
12998.6940000	-42.7881410
12954.6870000	-35.6422190
12800.8890000	-41.2909330
12870.1200000	-38.6156190
12801.9670000	-66.4111760
12610.1180000	-82.4178070
12642.1180000	-19.7744720
12474.9370000	6.3297547
12563.9740000	9.5971448
12351.9590000	21.7460690
12315.0040000	-11.2556220
12318.2890000	13.9625250
12263.8800000	34.4153810
12267.4240000	-65.0775080
12089.0990000	29.8836300
12019.1840000	83.7112850
12062.2990000	58.6362280
11951.2850000	31.9916150
11902.8730000	-3.5592861
11881.8660000	5.1341633
11772.9740000	-49.5932770
11784.8170000	-11.3178060
11690.5660000	-79.7014940
11691.2710000	-66.1682550
11579.5540000	80.8710880
11607.2180000	40.3290540
11478.3130000	-63.7781270
11343.7720000	15.5546640
11427.7640000	-72.1558650
11385.7820000	81.0881440
11268.3570000	78.7725300
11288.6040000	-46.0969100
11133.7060000	-53.9068710
11082.0320000	56.6459710
11097.0700000	36.9385330
10951.2090000	-33.5279670
10892.2460000	-62.6219360
10842.9160000	32.8443940
10929.2370000	-77.5409770
10820.6170000	31.5776850
10768.1980000	37.9937320
10698.5240000	2.8664825
10608.1080000	17.4590480
10657.3720000	-64.0366140
10576.5960000	-67.2255170
10546.6540000	-66.3602100
10375.1360000	-21.7654300
10397.4680000	62.8986630
10324.6820000	-59.3003410
10350.5980000	-61.3404340
10204.0960000	-72.4446260
10248.9340000	-35.9122570
10084.9600000	-72.3344660
10145.9110000	27.7352860
10039.5090000	-38.0071230
10022.9160000	-49.5209530
9910.2766000	8.6469604
9871.9424000	61.3534710
9844.3118000	-70.0543600
9864.2704000	47.7979900
9857.9005000	68.3371090
9709.6160000	-80.0686400
9768.0576000	58.7810610
9617.2020000	7.2711436
9630.9365000	-18.7595930
9478.6449000	-81.6075390
9535.8098000	52.2971570
9382.6510000	-1.1539950
9460.1978000	36.1924620
9312.5363000	-21.1971400
9315.5953000	-10.2521690
9299.2953000	-55.3570620
9275.5706000	1.2422073
9240.9120000	-23.5487830
9112.3650000	7.0006103
9189.6807000	69.8472350
8991.0536000	71.6270620
8955.9208000	-82.3222850
8946.7728000	59.3948670
8873.1655000	-51.6559440
8880.3043000	57.2282600
8939.2421000	-76.5602460
8834.5218000	28.3459500
8810.3029000	53.1050310
8696.2187000	-70.7026050
8616.4215000	69.1440560
8647.4203000	-17.3406610
8603.8640000	3.7274259
8550.5743000	-40.6720770
8532.3364000	37.0562930
8469.0227000	74.2798430
8437.8795000	30.9215170
8404.3399000	-24.2771400
8377.2002000	-82.6337940
8254.4129000	24.6840830
8313.9736000	53.6651340
8221.5494000	46.6010740
8275.9265000	44.9417240
8092.0366000	-26.6293370
8154.8873000	-63.7391700
8174.0607000	-67.8542760
8136.4082000	55.5891230
8045.9486000	-30.5057820
8054.3041000	-51.9748040
8021.8541000	45.9908430
7904.8378000	-5.7609272
7934.2950000	-55.7410570
7916.6051000	3.9561246
7842.6183000	64.8019540
7832.0901000	-28.3912100
7696.0463000	15.4753980
7722.5004000	70.9855910
7698.6959000	24.8541310
7538.8871000	59.0587570
7565.5586000	-59.7132250
7584.3130000	71.0224640
7470.4547000	-84.4020050
7505.4060000	-9.3561590
7355.4830000	31.2346840
7398.4193000	1.6022278
7414.6756000	-26.4782570
7286.5446000	-62.6012280
7375.8411000	69.7964700
7187.2995000	20.0938440
7300.0083000	43.4979080
7265.3876000	-60.4027030
7157.3180000	-84.3486970
7215.7370000	-54.5612040
7105.6977000	20.3387780
7037.6205000	-24.8013150
7057.7178000	-18.7438800
7074.6909000	-71.3840320
7042.3975000	-66.7816300
6936.0475000	46.9105770
6860.9077000	68.2559000
6812.6838000	19.1147250
6918.0203000	23.5914330
6851.9465000	52.5127140
6840.0656000	52.7365110
6775.9765000	-69.5229700
6783.1945000	-74.5137700
6629.6635000	-6.0424469
6635.8640000	13.4175890
6587.3636000	84.8908270
6655.0042000	-12.5142510
6531.7143000	-70.6302710
6573.7071000	-47.6322490
6492.9174000	-68.6443560
6409.5167000	-32.4553590
6475.8439000	-10.1254900
6349.4672000	-53.4615580
6294.9091000	-75.0807710
6407.8519000	-81.8501720
6301.5361000	-72.7101400
6236.7476000	56.5232940
6226.4989000	-51.2962700
6181.2901000	-26.9173390
6162.1136000	-11.0655490
6155.1793000	-43.7436810
6116.8328000	1.0000539
6023.1043000	-23.5458630
6016.0183000	-67.2470690
6106.7718000	-54.1931190
6018.4010000	-19.1271940
6001.8878000	50.7047030
5950.2204000	75.5370810
5945.8161000	16.3150590
5854.2221000	23.8345140
5866.1367000	-66.9479720
5822.0472000	-84.4363430
5839.3256000	31.4997370
5820.1157000	-23.6911420
5806.3544000	-60.1063360
5815.6596000	-3.3341112
5685.5270000	-73.7519200
5668.7531000	79.5329860
5581.1773000	-75.9465620
5655.1580000	-66.1846440
5543.0884000	-10.5712790
5591.3844000	-18.0099290
5483.3196000	-50.5543030
5596.3166000	27.8340880
5443.2390000	-44.7717950
5433.4071000	0.1913208
5501.6668000	-57.3526740
5487.1534000	-1.0421509
5402.3295000	9.3612544
5422.1874000	-2.4708214
5431.0450000	74.3208930
5385.1329000	-11.5903100
5259.3780000	-7.2438357
5215.7716000	-51.4173120
5256.2750000	-11.5754690
5309.9126000	61.6799100
5163.9787000	-44.4128840
5102.1140000	-16.9762540
5153.4391000	-49.0392200
5197.9347000	22.0754680
5115.5563000	35.6163100
5132.5109000	-60.5224020
5015.9614000	29.0039180
5024.0628000	44.4047810
5069.0255000	76.6002230
4905.5663000	-59.7653820
4991.7948000	-44.4763270
4994.4930000	-33.6535500
4932.0587000	10.3501020
4942.3418000	21.9605780
4868.3943000	-0.3127620
4916.0861000	19.0671410
4828.4750000	-51.8315830
4780.6900000	-82.5758810
4749.1053000	28.4970410
4781.0517000	68.3675850
4737.4777000	-12.0253290
4674.8659000	78.3339090
4665.3238000	5.2691599
4723.0342000	29.8278720
4725.1331000	19.5932050
4584.8360000	-66.6624370
4549.7084000	-14.6423210
4532.2138000	-45.6448250
4584.1949000	53.4741070
4614.4902000	34.1375580
4464.4036000	19.6073840
4459.0359000	46.5072650
4394.7426000	21.9044320
4411.7482000	29.2123480
4479.5292000	37.5377130
4364.8137000	28.2142620
4310.7570000	-68.2186160
4431.9269000	41.5130630
4409.8858000	49.6509600
4383.7987000	66.0474080
4230.7580000	47.7178400
4307.9890000	-23.0105760
4261.0856000	-24.2690820
4224.6354000	-38.9122550
4233.8412000	7.6215286
4204.4668000	-6.5850297
4152.4761000	-9.7333835
4229.2863000	24.4593370
4164.5603000	-77.7879320
4080.6250000	33.0223470
4191.8059000	24.2567500
4149.8028000	20.9737950
4087.7127000	-11.7288220
4050.0346000	50.7121850
4059.3844000	46.6479940
3996.4367000	74.4732610
3947.0393000	58.6834190
3944.6610000	73.1868610
3910.9266000	16.5054840
3874.8278000	75.6570130
3930.8267000	2.2904926
3926.2547000	-57.1399130
3888.4459000	-26.7314110
3939.0375000	50.1701070
3911.0516000	-67.5138920
3901.5068000	-35.3719850
3744.2130000	29.1207040
3763.5062000	-27.6839610
3815.0816000	67.6481500
3701.3663000	81.5319010
3702.9582000	-36.1350980
3637.9130000	45.8676580
3658.4614000	-58.8772810
3615.0583000	-40.7431730
3613.2094000	59.4400450
3684.8457000	-12.9902490
3669.4373000	5.2365648
3633.4449000	-25.6921520
3630.5813000	40.7924390
3608.9158000	17.8059010
3579.5546000	-53.2850000
3492.5857000	50.6789020
3579.9913000	9.1854537
3506.4976000	-21.2946050
3422.0657000	-42.5312510
3511.4984000	41.2685760
3493.1389000	-16.8052100
3411.2360000	14.5297720
3461.5214000	48.5856180
3374.2234000	-46.2874910
3375.7230000	-70.4373050
3364.7959000	50.3719240
3328.6453000	-85.4833670
3370.2216000	23.1779920
3406.4711000	-20.6713010
3292.5935000	-18.8434530
3232.7492000	79.0183930
3274.8748000	-3.0935590
3328.9971000	73.0087500
3204.6901000	-22.3730370
3280.5944000	79.7026570
3226.5360000	65.6881060
3134.9994000	13.2905850
3250.4291000	41.8815530
3173.9066000	-6.6505726
3145.7145000	-9.0448771
3104.9353000	-79.2300410
3177.2134000	25.4213970
3195.4007000	-77.4851390
3158.5598000	15.2661470
3040.4233000	71.0848410
3025.4219000	-31.5702460
3133.9890000	15.2304670
2981.8234000	-50.4176620
2960.8022000	42.4413620
3109.8418000	17.5050980
3001.2818000	-26.7197350
3004.1496000	2.9417339
3023.8133000	23.3502920
2906.9831000	62.3403840
2966.8653000	81.3794020
2859.5001000	83.3179590
2926.1314000	61.4129250
2995.4433000	79.8345340
2878.3149000	75.8536790
2959.2569000	27.6593030
2860.4789000	-52.8100260
2909.6206000	-63.0514770
2915.5751000	66.7245560
2858.8700000	-37.1657430
2766.4253000	77.6829030
2877.1793000	-1.5171707
2731.7129000	23.7441550
2844.7264000	-74.9852900
2758.0928000	-14.7216430
2706.9421000	-5.3051675
2765.2047000	-68.0340150
2786.0970000	10.2733630
2723.1283000	55.7893260
2757.0126000	-49.6079720
2704.1036000	13.3226540
2736.2425000	14.2652570
2683.4005000	-4.8361424
2681.3793000	-13.1943490
2714.5105000	31.8815420
2619.9799000	82.3770580
2597.4764000	61.3630350
2666.5391000	-18.0910560
2638.0277000	57.6051800
2522.8742000	-4.8123659
2578.7127000	-72.6763220
2471.7337000	18.2018560
2623.6259000	9.5383292
2574.2422000	30.4616450
2520.0269000	-44.0937610
2468.6938000	-20.5599660
2507.1561000	76.9507900
2558.7364000	47.6324660
2395.9869000	-53.4167240
2398.9984000	10.4975790
2413.4596000	29.9629680
2464.2652000	84.1756690
2388.1390000	-73.3749380
2412.7021000	80.8698670
2452.0317000	-79.2245040
2342.4731000	-18.3738820
2341.0714000	-25.4391320
2402.0233000	57.5541020
2309.6940000	59.0131650
2375.1996000	80.7141530
2380.5310000	-83.8452620
2297.2765000	-54.1879620
2259.9686000	-66.4051810
2236.1969000	-81.5213060
2290.3472000	55.0782550
2330.5583000	53.5898530
2298.3060000	-49.3610170
2239.9219000	-38.1979940
2192.3900000	22.3567450
2284.0454000	76.9630050
2263.1937000	41.4020900
2148.2779000	-41.0379040
2235.2532000	-52.8586890
2280.3824000	82.6701360
2237.8582000	-42.0252950
2218.6045000	83.9490800
2199.1673000	2.2440001
2140.6061000	33.4515280
2079.2130000	7.4290415
2162.9314000	48.6316270
2045.0019000	-70.6654590
2056.6426000	30.6473470
2102.3936000	-50.6488370
2059.4707000	-31.0517370
2148.6089000	50.4952460
2119.9709000	-73.9633010
2135.9948000	5.0269473
2060.4582000	7.2807969
1986.3950000	-38.8280130
1953.0182000	-17.7852440
1989.3762000	70.9574510
2078.1848000	-47.4532030
1981.2796000	-43.6995720
2011.2052000	15.0613720
1966.0920000	-68.9493430
1932.1286000	83.2090420
1944.4729000	-35.2066460
2013.2106000	-19.6098920
1905.1495000	-67.4591840
1982.4619000	-77.8599130
1866.5058000	-3.0493955
1917.1549000	60.4249200
1980.7621000	-35.8168890
1857.4497000	-37.8930560
1860.0883000	-31.3128440
1804.2162000	7.9561183
1867.7049000	65.3266870
1809.2237000	-67.6517880
1806.5932000	61.5700320
1838.6554000	64.2742440
1912.3258000	38.2569910
1823.2726000	35.6960290
1875.7929000	-85.2094440
1842.3194000	-36.0533140
1861.5501000	8.0785443
1848.2940000	23.6373310
1818.7971000	57.2424410
1859.3152000	-21.5172850
1735.5557000	4.2098755
1771.9756000	-54.9855300
1686.4116000	37.3030200
1782.1807000	-62.0290310
1738.9977000	9.6004127
1807.8841000	-57.3389720
1803.2453000	-0.4175899
1764.7079000	60.3589520
1775.4880000	34.6979370
1686.1764000	-7.2886674
1772.0519000	54.4818120
1667.6341000	77.1020450
1742.2080000	64.1164550
1682.5020000	-68.3915790
1605.8323000	2.2128009
1619.8415000	-23.6742210
1630.8414000	-32.4937010
1644.5279000	43.6152290
1675.8511000	-71.3080880
1568.3246000	-6.7418419
1624.9999000	-5.0176973
1630.1443000	-76.8297410
1657.1916000	5.4515636
1595.1701000	-6.0826179
1592.8370000	41.0975110
1623.4387000	10.9636870
1579.9180000	17.0956800
1573.8563000	26.7789950
1635.4797000	52.4158670
1559.0994000	-36.4202110
1551.0247000	50.3866300
1463.1018000	-79.2832510
1450.2939000	33.8375800
1493.6755000	-7.6000110
1503.5904000	57.5945720
1537.0975000	70.3109130
1489.1192000	18.2287120
1570.7255000	62.1168340
1554.2098000	29.2367970
1490.1682000	-43.4902800
1478.6493000	0.3484907
1422.1676000	39.7606620
1507.7197000	8.5436983
1394.3323000	25.5231590
1516.3502000	27.7235820
1390.3562000	74.8504070
1421.3360000	-71.6503980
1425.8943000	-76.5893050
1477.2777000	-1.6330281
1462.5530000	21.5403240
1325.0982000	-54.7017390
1313.2357000	27.8560180
1406.9763000	-19.5949630
1357.4791000	-37.2338970
1298.6036000	6.4740261
1360.0099000	-3.4794893
1344.6878000	-40.0975170
1423.6837000	-18.9038700
1291.6244000	-69.1373160
1303.9787000	65.3214840
1259.0643000	37.1406530
1310.5476000	-83.1022190
1307.3194000	83.5656280
1279.0407000	19.6485030
1305.1109000	55.8679810
1268.9069000	65.1428710
1218.8223000	44.7894450
1243.5620000	-73.9230420
1343.5970000	-50.4222500
1330.3428000	-36.6978870
1359.5063000	-76.2022230
1294.7608000	-24.4281250
1245.5472000	-20.8293550
1175.6012000	-39.5505610
1278.2779000	-62.2106640
1249.7067000	82.1681870
1238.1846000	-69.2889280
1174.7971000	-36.4952160
1148.6565000	84.2081690
1148.2010000	59.1580250
1272.6929000	45.2799780
1221.4436000	77.4710440
1156.9743000	53.3403970
1189.2689000	84.7270310
1193.0734000	4.0921799
1245.1886000	-12.6309260
1230.6639000	-28.3232530
1150.8385000	-82.1658860
1146.2219000	41.3367500
1217.2571000	32.6677690
1139.3988000	-18.8000490
1134.3737000	53.8478310
1215.8570000	76.3753580
1187.1132000	76.9966830
1112.1132000	10.8541230
1104.9147000	-13.8007680
1195.0569000	44.4837710
1150.3703000	-39.7523340
1066.1971000	-30.4650020
1098.5949000	-33.8505790
1134.7880000	43.4805250
1138.1128000	-61.8393090
1096.8304000	56.1780700
1026.6124000	-81.8734450
1044.8510000	40.8371210
1152.3058000	7.8510426
1142.7663000	63.8469760
1066.6214000	-82.5415140
1053.2890000	39.9145100
1083.5856000	-48.4852050
1097.1623000	13.0965220
988.3781500	42.6656360
1082.5631000	-73.9931200
1035.3233000	-15.9210470
1101.3370000	-34.1654300
1027.8112000	-65.9080330
1062.9204000	82.1213860
1034.1211000	82.7475790
1023.4936000	-17.8528970
1047.2976000	55.5855080
1069.1771000	42.0646340
1020.8331000	71.5427990
923.3609900	32.4227580
951.4128600	-16.4809220
1073.2116000	-32.4877620
930.5397800	-34.7732370
1019.7920000	19.1246370
972.5669900	-11.3125600
992.1927300	-63.5422950
998.0137000	-20.1355730
880.9673900	-6.0739668
913.6377800	-24.2136390
925.2692800	21.6656660
955.1690800	30.9240560
878.0016100	21.0994590
980.6809100	-69.5283290
936.3211500	-8.0240776
863.4273800	-35.5018740
921.5740700	63.3611010
993.2579600	19.8129440
954.4657000	-11.2764760
887.0901900	-35.8585810
849.0519800	7.2551370
828.4728400	-80.3314620
937.7271000	23.4806870
855.5704800	-12.4275870
884.5884400	0.1421492
850.0437900	-16.7104060
836.4985000	84.6136500
913.2976100	17.8888240
914.1430400	15.2171180
842.4693200	40.1357810
836.7203300	76.9948430
932.7832400	41.2358320
857.1416500	-71.2696300
922.9719300	37.0086430
894.8810100	-50.6149200
838.2657000	-16.4075410
801.8903300	-61.6818840
862.2699000	14.4793050
858.4808500	-43.6826220
797.0328700	-60.4976740
821.9539300	1.6223375
794.7467500	76.8564380
787.4463500	-49.4359070
860.0721300	-76.0597980
859.9836300	18.8487450
798.3803500	2.9188040
754.0823600	27.4659380
864.7262300	17.8642970
818.6591400	83.7695050
869.0848800	-60.4100120
759.7366600	77.3947730
764.6647800	-17.9596500
785.8195100	-2.1640737
695.3106700	12.9664360
754.0329700	83.8278140
764.2640400	67.9119070
786.1489900	-84.0405140
741.2485400	72.5344750
691.9599500	14.0612210
820.4519600	46.1525670
751.8802700	-53.7882190
810.4101400	-82.6204950
822.4137700	63.4125830
714.6405200	-23.7709040
737.5177500	3.7544262
695.0677900	30.5130640
686.3011200	-2.3852517
750.1619800	-60.6509010
720.1161100	6.2585522
761.5964000	-14.8962020
712.8578500	41.1092170
681.6738100	20.7541430
767.9435300	56.2479690
717.8358300	74.4650280
694.0294100	34.8561450
679.7721700	-49.6351020
661.9750900	73.1940760
637.8958000	35.6287510
704.8787600	-66.8765400
772.0688400	-63.6352120
612.5636900	83.1388560
724.6364900	63.8847150
719.3054800	-79.0750360
733.8736500	48.5302260
610.3827200	21.0623190
656.7891300	50.8343420
582.1497700	14.4860510
730.0073300	7.7404345
595.2995800	25.3265470
607.0722400	39.1422470
685.1090400	-72.3411790
619.5435900	-31.0388000
606.0771900	-10.3997270
586.1834900	11.5517160
670.8600000	33.7624990
572.2581200	59.5647120
642.9591500	-58.6838810
640.4635200	33.2315110
673.9743700	64.9555300
586.8677800	-43.0665840
603.6882400	23.1255880
586.1730200	72.4457150
617.2861200	78.1532840
529.7533200	-36.3632380
586.3031500	-30.9386570
524.7886200	-17.6389810
578.9057300	-55.7452380
649.9960100	-48.0972700
550.8712200	-36.7103930
524.7285100	-28.5357080
566.4103100	24.2621780
588.6077900	-5.5939639
597.8909900	62.1461480
607.5183100	-82.8573400
578.7938300	-57.1634780
607.7877500	15.9662930
574.7618400	62.3625230
544.5095100	-75.1935690
489.5939100	79.5455440
642.4419500	30.1148080
640.6717100	57.3481830
625.7658600	-47.9517400
578.1355300	50.2167520
539.2598300	-66.0032410
518.2606900	-57.0209290
491.2021000	-34.7190580
497.4271300	-24.6173450
497.2846800	-64.8957010
469.6523300	-60.9598930
552.9183500	0.7929271
582.4730200	74.3609810
607.6195800	-76.3278640
479.8425600	-37.3924160
576.5946600	-4.8151067
512.0240500	-50.8818130
533.2599300	64.4633770
594.9421300	-12.5793200
572.9374400	-74.1476390
504.2742100	17.8735740
577.3409500	52.8390280
539.4438700	36.7580350
559.7207700	59.4450330
447.7970600	-5.8871885
440.8372900	-14.2704130
541.9685500	12.0475580
524.5889800	-38.7483380
552.8900200	-51.5097940
444.8279900	66.1519440
486.0388200	-18.3219680
489.8879900	-65.6700850
417.9796300	75.0105430
441.7892300	75.5302780
451.6017300	29.7260870
538.5852000	-64.3417820
500.5379100	25.7494500
428.4626600	-7.2058327
542.3965500	-33.0651130
420.8345300	-77.6445310
539.4100200	10.1521220
387.6253700	-24.7049750
401.0343100	79.4951650
485.0670800	27.2905240
456.1505700	-62.3766220
393.1186900	76.4184320
463.7997300	-7.2753702
409.0823700	-48.2396690
481.4992400	56.8060020
475.1087900	-27.9905640
515.9098800	14.9937590
437.7021100	3.2438663
380.5769100	-24.2152040
473.8243600	18.9236760
462.7056900	-44.7139390
406.9773700	53.0750600
440.7735200	-14.6641380
462.2141500	-67.2892070
399.0137900	47.7435430
413.0830600	-22.6254790
425.8418400	-4.4687300
396.1705700	63.2149810
476.9399000	-68.2958940
417.8727800	9.0451953
476.0281800	59.7654590
454.2310400	-27.1939820
443.4108000	79.1476080
346.7204800	-28.3948940
408.1938500	-50.7798450
458.7836600	-1.3782644
426.6927300	65.9829930
381.2509700	24.5512170
422.1604400	-31.6100480
326.1335200	33.1850540
481.4792300	-81.4693650
400.7356600	84.0254630
461.5115500	10.5062110
340.3087000	-35.6513040
365.0542200	-81.3422770
345.5034000	32.1283730
466.8827700	-16.9331460
378.8170300	80.8672470
369.4400100	-1.5814180
442.9304200	-24.6452040
325.6502600	-56.5940430
402.1561500	61.2922160
339.5167900	-85.3967410
348.3782900	-82.4111720
429.5058500	23.0654770
390.8142800	60.5844130
347.6696300	-23.4794050
342.2315400	-69.4322130
453.9758700	83.3096010
432.3781100	43.4921850
413.8901200	46.6176060
342.8532000	3.5166364
307.7901100	25.1563720
437.8507000	-4.5165795
292.1380800	28.7794990
315.1606300	-20.7558870
425.4964100	82.9223320
429.1513000	53.4512590
310.5518700	-73.9159340
287.1389400	83.1996700
368.5361800	-22.1103210
311.9488100	-26.4626460
319.7556600	-56.1648240
350.0097800	-27.3918450
298.4516100	83.2536670
386.7505900	56.9199530
400.3685400	-16.6114640
273.8419600	19.3762760
291.6306400	-79.1191840
262.5073500	23.6079550
298.7305200	-36.3191420
306.9371300	37.8769370
261.8301700	-72.4126040
244.6739300	-49.2882020
268.1473500	68.6301100
388.4599500	31.5189670
400.4613300	-75.5053020
250.2763000	43.4639630
293.1519500	-51.4155800
263.7882300	76.8188250
404.4116900	34.3660380
320.0260100	-15.7404680
362.5557500	26.1157480
269.9420800	69.6640000
269.4287800	69.0600540
373.3470600	-66.1511400
229.1304700	43.0235070
386.3564100	27.5659170
358.6494500	21.9544840
368.5961600	83.0601960
255.3484800	-58.2415290
303.6504900	-83.2629900
326.5879400	-68.3792270
315.9581900	-61.6726960
254.6671900	12.5935270
368.4695200	62.7047090
317.7875300	45.5663640
231.3574200	16.2370110
296.8076600	65.7234330
355.9589900	-40.7327390
234.6290400	49.2470710
367.0710500	5.8530661
370.8999100	47.2224540
343.3047800	63.1959010
343.0381800	-43.4319010
309.9177700	-32.3290130
344.5313900	78.7229260
301.4391400	66.7201130
319.4365100	26.1899470
252.4745200	21.4853450
312.9720100	4.6807802
268.6154200	-28.2809920
221.2099400	64.3599280
209.0096400	-14.4150600
266.3910300	0.2299819
190.0399400	-4.9488192
220.9916700	-65.1743030
258.5489100	-40.2842940
320.8784800	-67.4972570
246.8136300	-23.7242190
325.1179700	67.5240950
195.3097500	42.6246310
279.3544300	-55.6722760
266.3046900	-57.0151670
229.3522000	35.2424950
179.2600100	-37.4309370
311.3136900	82.6825000
308.0628900	-64.9120330
207.9886500	10.5838420
293.8396400	-69.4795560
244.7378000	-40.7044090
335.7874100	-67.2449220
234.4848600	35.7752880
292.9795100	41.1755170
181.8585700	-17.5620820
276.2902500	5.6687036
202.8246800	67.6949890
182.6129200	28.0745910
164.9618200	84.6109170
245.9755400	-45.7181760
290.1140800	24.3048080
306.8730800	-54.9548200
264.5730100	54.8563180
201.2798300	14.2550890
205.1867900	58.2640630
237.3610100	44.9337340
204.7424700	57.0148280
312.1130200	-39.1383920
215.4994500	48.8202440
230.6399600	-83.5596100
178.5120800	-55.8784410
143.1586700	-61.4857360
209.9876800	-76.7704570
283.7719200	-79.2972120
216.6861800	-85.0472960
196.9846400	-11.0026350
169.1760500	-75.7439830
209.5031800	-80.5717150
184.7296400	72.4813390
274.7854000	61.5568830
170.8693000	-20.9378650
273.1169300	59.5219460
251.3637500	-73.5819170
194.2471300	-39.1571230
186.8137100	6.4185483
151.3180900	44.0947870
158.5540800	15.4354000
284.6969600	-33.9177260
257.2203200	53.6562810
157.1356300	23.2872640
221.9328800	-34.3731860
261.2707400	1.2533275
200.9595900	-32.9209440
204.2761400	-50.6541770
190.1466800	-12.2625050
260.3994000	1.6197363
190.4432100	30.5857310
142.5108100	-63.9305390
225.5409900	-82.9584280
117.2783400	-53.7744450
114.4049000	35.3239370
260.3994900	-63.5375710
133.6811400	6.7825020
259.6982400	71.4525820
208.0147200	79.4693800
116.8087700	12.6298630
274.8618700	61.4288990
251.3562100	-13.2094710
204.5855800	72.8396350
215.8814700	69.5663580
247.1354300	-1.9545317
220.7326500	-23.2157160
257.3591300	-83.3258140
196.4706500	-56.4964230
120.0021700	70.0555050
173.5401400	39.0242440
244.2325200	-2.8060771
120.0671000	-49.1825380
172.4081400	-3.0604333
198.2266700	-12.2395840
101.2613100	-46.3764590
157.0841600	44.8145050
194.7296800	-50.0268780
131.1959600	-32.1309910
231.2726600	-72.0455440
257.1999200	21.4173700
124.4635300	-71.9400100
256.1525900	34.8964430
244.3499900	-34.7865680
135.3574400	79.6325630
200.6665200	-26.0079610
144.8825600	-78.9412960
252.1790400	-53.1058690
213.5881100	30.5115290
213.5409700	-37.9155030
208.8476000	67.9556560
214.2485400	64.3775470
169.5811600	-7.0664468
152.0295100	74.7211100
190.2528000	3.7077363
113.8467600	-38.6344370
115.7438100	79.8695640
120.2322200	-76.8198280
223.6227100	-24.0519100
106.3605000	-23.3356480
78.4181590	-32.0747120
119.3623300	-19.0769570
167.0741700	-83.0235500
82.1838450	-49.5369390
176.8413400	-82.8079320
158.0832100	11.5858850
225.5700800	19.6325110
171.6065100	-75.2019530
106.9632600	80.2035960
201.5717600	-4.0349392
74.7670780	22.7760240
120.2719200	-2.8428360
83.7768690	-35.0302370
163.4277100	18.8309220
120.8193500	56.3050660
165.1040400	17.8323960
120.8833300	-59.6356520
152.6929500	-68.5780230
194.7120500	-19.5795440
61.9221050	-78.2378630
94.8929730	60.0281530
136.5625700	5.4960596
81.9737680	3.0983580
188.1299700	68.7829800
96.3350680	-65.9200550
128.6751000	-25.2218120
224.5689400	66.7799110
203.7735700	54.5326750
225.1597200	-62.3139120
71.7856420	40.5263350
83.0322490	-24.0263370
160.1296500	-58.0388390
131.4431600	33.7071760
102.0348900	84.4764990
73.9262420	-48.2240370
179.6355000	-53.9652930
103.8450800	-81.4566880
210.7553300	-23.2600810
87.7723060	39.2749840
130.5946200	-80.9029230
109.9524200	37.5298270
169.1978100	-57.0467030
74.0114140	-45.0301570
108.3491100	-32.3994770
104.5757400	-35.1799640
131.2655600	-69.3203830
69.1644190	30.7505820
106.2711800	-27.0916470
55.6746120	22.6529040
181.8915400	19.8082500
100.8584400	28.5661260
162.5583200	-4.1622703
133.9947300	6.6921082
127.1601900	83.7453490
100.5064000	3.6751822
142.5560700	-18.9046680
145.6470600	71.5927910
148.4569100	-48.1986570
187.3759400	-43.7514580
50.7481640	26.4030170
136.5445100	-3.0056345
61.9993140	-65.5087720
114.6373000	77.5094210
41.7185980	-18.4946410
148.9793200	-30.7432200
99.2882140	49.5170600
80.5970970	9.3146485
102.0460800	-65.2489960
107.2237500	44.0406910
121.0679800	51.5903150
52.1139760	-36.0881370
149.7088200	63.1142910
51.4653980	-36.7298670
196.7607900	-27.9891520
180.5644900	-85.0308170
96.5946240	-9.5161719
168.2090900	-80.1828870
109.2326100	-11.4715650
40.0333800	-64.0319050
191.0810300	-60.1368050
33.5243500	57.3408020
97.8980250	17.2409070
170.1423300	21.3889110
164.9525000	-53.9389430
162.0296400	-11.2202330
71.8561530	-30.2268850
164.0642000	63.2357340
51.0011050	31.2720360
34.3950210	-62.0769650
179.6378000	-63.0160930
132.7271400	-43.3721750
71.5118050	30.7788280
66.6732980	-27.0139530
51.0494730	-22.7782660
142.1612500	5.7459316
183.0450500	-41.5169130
148.6325000	72.1289810
172.7097300	-17.1496460
107.6858900	-79.5883840
109.7642200	-40.3836040
166.4311600	-50.4488460
80.2707630	-10.3710970
85.7239510	-32.1023180
65.6187930	-13.5329030
63.8632840	-56.2309240
50.9475910	77.1658430
146.1458300	-64.3081940
62.0913300	66.7421220
85.0404260	-18.3338550
66.1558210	33.2769030
172.9870700	-51.7171610
136.3214100	25.4830680
138.2401900	84.1250760
137.9388600	13.6902810
113.5337400	48.9976370
104.5086600	-80.6667380
17.4330180	-44.9866980
90.4361590	16.5014110
41.7586110	-43.6860540
54.3022010	36.4073760
118.4982000	-73.2480900
46.6284300	-61.2820550
141.2064900	4.4453272
174.4027100	28.9355780
26.6130300	-69.2996530
161.5943000	-60.0573930
75.2117580	44.6912370
118.5103400	-35.9432290
79.8848480	-3.9737197
36.1928370	85.2891710
162.2616100	-45.6787920
59.2638760	22.4108660
36.5423210	-82.6361220
12.6607530	-81.1752920
160.2411100	-3.0461382
86.0845730	-31.7614350
8.8519213	83.2808930
43.1579720	-21.0129740
58.2256050	-2.3694124
167.1781400	-54.1168030
120.8279600	-0.5519234
-0.0689509	47.4846620
0.1116311	-22.8008060
12.7818240	-77.4979340
132.3872100	77.3466160
115.6645400	63.5701280
86.9616260	61.3621450
66.6802190	63.2686530
100.5922500	84.5673010
13.4622090	-67.2422150
63.9217950	44.5401270
38.0651360	-11.6516480
104.7840700	55.8018820
141.1316500	43.7703980
112.1680900	66.6396220
96.2394830	69.7042370
26.4736990	69.5886370
53.9276430	-56.4366600
46.5386340	24.5405350
50.5862720	70.1503980
120.8172900	-56.1458550
143.6963800	79.3018200
147.9712500	74.9941410
62.8405090	-8.5846171
17.1108570	69.4043400
39.4907550	28.8135920
119.7680500	-11.7717740
117.7261100	-34.4144580
62.2642100	-9.6147993
85.2383690	74.9150320
0.4862138	10.0667720
88.1252860	75.5069570
79.2531890	57.2994730
16.9831380	22.3561610
30.9087750	69.3053110
112.9014200	-7.3161254
155.1502400	44.1625730
102.6696300	-71.8771820
65.3758150	77.5208100
93.1629050	77.1263710
43.1992640	39.1495600
-10.8620240	-21.6833310
77.2325560	-65.7403750
92.3021880	-50.6724240
96.8664590	34.1824250
107.0640100	7.5186418
76.9626740	72.1388450
71.4831050	33.5402520
47.4260670	-36.2708300
78.4806300	26.2314270
114.4395000	-71.4042790
75.4391140	6.0290826
-3.0427506	-8.4613807
4.8324213	-64.8331920
148.2162500	-7.7465892
-17.0970400	27.3014300
13.9106620	-48.2692640
99.0698300	-26.7621410
60.2786970	-59.1225770
145.2168300	14.3049170
102.8955600	68.4581300
16.0209650	29.1379130
53.9119850	-80.8779200
112.9085200	9.9807897
-1.7833046	2.9557565
79.0015060	-77.4055420
0.9454679	-56.0645420
41.3915120	48.2538610
107.1328900	-10.1021270
51.4166310	-54.3303760
-7.3281188	85.5793520
106.2185400	84.1941930
88.8102380	-25.5320520
41.0156030	11.5623360
95.5317750	-11.0097240
-23.3348370	68.0677890
116.5059900	78.4963830
89.6356560	82.0149590
128.3467900	-79.9784950
58.4331830	-49.6417920
71.9517250	-23.7401300
107.8988800	10.5300040
139.7250100	-8.1695214
64.6340290	63.1193780
130.3731000	73.9955520
105.0598700	81.0799150
5.8318476	-63.8621010
133.3932100	-13.4424780
108.3146500	68.5332950
41.1598950	50.8252720
91.5356590	14.0106470
106.3016600	72.6575610
27.2502550	49.8803440
131.0136700	-9.0736932
58.8769480	66.4884230
51.4292780	78.1486640
137.7371400	58.1775760
60.3245920	-20.9879230
135.4434100	-1.0909080
39.9360230	53.0765120
100.5437300	38.1457740
118.3644700	20.0475030
132.2810500	2.8659034
121.5644700	-17.1951100
100.4893100	25.7213540
114.8356100	30.2623340
56.6073490	-30.1483960
65.8352870	75.4332360
-14.3843030	-23.9076690
-0.2260932	6.5620277
60.3189000	-1.8513155
23.5113790	-5.6317078
100.5417100	76.2259740
-32.1735930	-19.0821000
-5.2649719	-40.3030830
-34.4349860	-53.7200340
-25.3392910	-24.6675190
132.3765600	-7.3392963
50.9073250	-2.7167940
101.9040000	-47.3574200
68.6448220	53.0495510
20.9714360	-8.5418540
-2.9058630	34.7112190
81.1695320	-5.6857870
51.0922150	-54.5076770
47.5888320	30.0248520
44.5048560	53.2053250
98.9306140	-48.5047540
20.2235270	78.1842970
87.7859910	-46.5633550
-8.2324080	-43.3372860
70.1433500	-84.4925100
127.6916800	12.2575760
52.1695240	61.9273590
-39.5114670	13.9902850
29.3772670	-84.2515110
87.8511340	-65.6260700
-7.1494849	-18.3116030
-12.1626030	3.1846870
124.6971900	6.9401944
1.8003313	80.0050920
34.0801590	-76.7876600
-9.4317897	-8.1655902
118.7505900	59.6892550
13.0079360	-77.9493120
114.7121900	0.4165813
32.3031630	-12.5506980
85.8926360	51.3072410
32.5587350	6.4292996
86.9271640	62.8572210
73.3864540	16.8714240
18.3934140	-64.9942990
33.7375880	1.3228767
116.6450500	84.2561990
73.5222680	1.6436328
-2.4618813	-46.5513470
42.9822050	-76.1707420
31.2548330	-23.8834080
36.3997490	-25.3863070
-35.4799170	24.5001580
45.5394560	74.3554630
92.5139640	-3.6132804
67.3247250	-39.6348090
40.9578490	78.6420180
31.5196100	-60.7434580
3.6876835	51.1496500
-39.7184360	37.9950750
66.2219480	82.3541010
-13.8302750	27.6758750
-3.7180481	43.7652320
33.7941850	-77.5318360
-18.6418290	-39.4860870
89.7914680	-33.4291230
-24.7815270	42.7641550
90.8663110	41.1465650
-25.7892570	-21.5543520
-27.7532630	-31.6193610
-41.6546000	-64.0491650
93.2019160	75.2311470
-23.6432950	-45.4517110
11.6092350	-11.7907840
69.0986020	-13.7445620
43.9606430	-7.2602527
-34.7621830	-12.7157270
-18.5982560	62.2667030
107.7525000	-80.0703520
40.0624330	-23.9717460
59.0574790	33.7094060
78.4585120	26.0805920
52.2604940	53.8388580
51.8631560	-60.9346000
-24.5366590	55.0847720
-18.7210480	0.9976793
39.7058850	78.4719600
81.2113290	-39.2391690
82.8671370	-38.5929670
18.9883000	15.5911480
-19.9182000	63.3970370
71.9386240	-81.5806240
-6.2943514	8.9696497
71.2629840	83.7884920
-0.9969926	34.6085790
-13.3819520	20.0268920
86.2075430	15.8553120
64.3206560	50.3612220
72.2387590	15.8750020
55.9497780	-2.1909958
-0.3761520	-4.8660587
-46.5344780	-23.5634920
62.3421790	73.0398190
6.7491644	33.2121030
-40.3786790	-45.0790450
-42.4834330	61.0312400
95.6999930	39.5565310
28.1458070	43.3403950
28.0941010	-78.7826050
35.4877480	-35.0128450
71.9002040	76.0524210
109.2520200	36.1252870
72.4392200	6.8975504
-38.8204870	-0.4401840
4.3939720	54.4440580
-44.8757710	58.0222200
22.2274870	-57.8235920
-45.0036240	-58.1833150
89.9108900	-81.2113680
50.4200200	41.4757950
9.3068109	-63.6231600
58.1855370	-66.5442390
76.5557240	50.5702320
75.7274960	-78.8110910
-28.2959170	32.5792350
-44.7881690	-40.2703940
70.2972660	-24.7152060
-35.4066670	57.9475650
-2.4414407	-32.8046300
85.5864590	-42.7253160
86.4535380	5.7910350
48.9522350	-59.2681160
6.5373110	67.6443080
-33.2755590	76.6180430
36.2633110	-6.4046766
33.7351670	42.0519330
107.9038700	23.3473320
-44.3559350	-73.1659920
94.1598030	72.5843350
80.2678610	-5.5162713
7.2028320	35.2779150
13.7962400	13.2362170
-21.4680490	-13.4008650
34.7282770	-41.5554480
32.9347020	26.3111270
50.2074640	-47.8980610
24.6048610	0.8990424
-39.5905090	-69.0279350
-30.0674920	-48.3192980
106.2938400	19.9179160
-7.5549244	72.4636420
49.4169890	0.1625532
-42.0819700	-11.5136890
-15.8047040	-84.8743800
76.0098720	-83.0915410
71.7199440	-67.6500560
51.3965060	-60.6627540
2.4638984	-0.0228891
-40.4119300	1.5328485
88.4670500	-11.3278620
11.7962600	80.8663270
-32.1794790	-79.8062420
39.5613400	-69.6747500
47.9833180	-69.2473130
-45.7721290	9.1335197
30.8905810	-66.0624940
-48.4939330	-45.3317800
-40.7501070	51.5339630
-49.1006420	-41.2989820
23.8604370	-16.0445630
-52.4334960	85.2937510
-17.2554140	49.6626120
71.6677580	60.8571410
-49.2356730	5.4323348
26.5422890	-33.6185940
80.4629680	4.4266641
22.6613220	29.8901070
93.0004040	69.3249080
96.6794760	-79.8328210
104.6371200	49.4701580
17.1233920	62.1565300
26.1529000	38.4962350
-56.3075910	-19.6576720
90.3667430	48.1622510
91.5440380	34.0452830
27.9812290	51.9088230
10.5732840	65.8013110
5.6236248	-26.0866660
80.2439570	-67.0257790
70.6622480	23.8337180
89.5606420	-41.8459620
-10.0863090	-79.3514750
5.4714263	-22.1037420
50.5261770	-61.5990460
92.4284940	-41.3118190
-40.3390050	-9.3812831
83.9305140	-6.0112296
-3.7202790	-43.7671810
103.4657800	83.9259220
101.2461600	26.5458970
95.2089500	-7.9027828
84.2416940	37.6081230
32.3234130	66.6534320
96.3685080	68.3326910
81.2458750	-63.6723520
80.7244080	83.3794840
-39.5022210	-39.2953970
104.1350400	84.4071270
38.9178730	84.9580120
-64.5233790	-60.1976390
97.3853810	-58.7847380
37.8320860	-35.4081800
-41.8750490	-16.5174280
-38.7799000	73.1693550
5.1912699	-10.6891900
33.8955910	81.3244240
-29.9697950	-76.6223400
60.9476800	22.9989400
-28.8960020	5.5683103
81.9079730	64.2077340
2.6151935	59.5956030
57.7136380	17.8883640
-6.9415806	-46.3596730
89.7582440	-47.5009180
38.9078340	-49.9587900
28.3556050	61.0974680
-59.0387120	-50.9266340
26.7923870	13.6527810
86.6578690	-60.2303190
-58.8154720	-34.5012700
75.9666630	-82.5128950
59.0915790	-68.5476320
99.3970920	34.5575530
-24.7924090	-23.2464560
14.8388820	-56.8596330
61.2221050	73.0283080
26.3954820	9.5274894
4.6821698	-41.0295830
30.3950990	-18.2051430
19.9904840	-9.9938931
14.5289220	-37.9903570
-30.9426710	-19.5569620
-27.3578580	27.6270980
60.7365460	-62.0340640
-6.9143127	27.7630970
75.8809140	80.6938350
16.5879570	24.8142770
50.3530030	57.1643150
91.9864370	-62.6929920
-16.0722650	-48.6784230
-3.5734782	-51.2845950
3.3054325	65.1570960
19.5110090	50.2592490
95.7927890	78.3261440
27.9107620	-11.8801940
78.5260120	43.4523000
-64.2298900	-80.7206190
88.8797400	-16.2035320
-27.4436150	-19.2498680
68.7874220	12.3940730
-37.0649070	-39.7328560
-23.5765790	-1.9867954
18.7387550	75.4320620
-3.3249770	-53.9529860
61.3696100	84.9789810
40.3664800	29.2594880
-19.1301810	35.5692760
-49.4184080	-33.8666170
-17.7507990	18.0343260
-1.2156477	51.1269930
63.6561880	85.1728980
98.1613940	-55.0213320
20.3816920	13.0732680
24.2469230	-56.0836890
-47.5387310	68.2354990
72.5196780	49.6198920
83.2414740	61.8481490
-3.4007104	-29.7557060
62.6512590	76.0464160
-25.0462420	54.1179290
-48.8039470	21.7510850
36.4523300	6.5733296
31.9464830	-68.8664690
36.1525000	-1.4322665
7.2331943	-56.3953340
41.8867020	13.3410680
-64.3836290	24.6831130
4.7440332	-22.5901110
-69.7913060	40.4305020
94.9332540	59.1690650
51.9159620	-23.9074490
51.1809530	61.0689600
-12.4232720	8.9160456
90.0553680	-17.6096180
25.3852650	-34.7459820
-65.3171650	36.8398630
-14.7688510	-60.1142220
-28.1495260	44.0206030
-56.4328260	-71.3221870
36.6620690	84.2882690
57.2054710	25.2503190
86.2939910	32.7641480
87.6234660	-80.5898830
80.2263380	-22.2385350
-24.9981120	-0.1130101
61.0404940	-48.6673260
10.9260230	5.9918191
-32.2542780	-55.1177730
-8.4311192	9.5101775
2.4934390	82.3751260
-45.6600030	-61.9346140
85.9558030	-48.4455090
70.8185530	46.3579240
86.6128600	51.9380120
72.6028630	-55.3323280
-25.5796580	-70.2130690
10.9700860	8.8028612
-63.9806990	13.8460330
8.2084140	26.6118020
26.9315990	55.6358140
34.5344160	-20.7083030
-7.1617424	-13.8016580
-31.9422900	80.4981500
-28.5300090	83.7674960
9.8359700	27.0826690
-4.1655960	60.3375020
-32.8144300	36.5312100
-14.2674690	40.9835720
61.6545510	-35.8153090
42.8119950	26.3589880
-71.0858890	84.8857780
-52.3954240	22.6252970
-27.2439870	21.3053370
56.0374530	36.0723760
68.0505300	67.6691630
-2.3181908	-37.6493360
-33.6259360	79.7423080
49.1382010	12.9512080
34.4749120	21.3334920
-10.7050040	79.5786960
59.1701250	-61.7942650
10.6818790	34.5196360
-46.1620860	-41.9279160
95.2110380	22.7136420
71.0623890	-44.6022420
19.1478290	44.0499090
4.3106224	-55.7750330
66.0288740	-42.9809450
-11.9754690	60.4773020
-35.4715600	-43.2985910
88.5924340	34.9444680
71.7184550	-27.0661230
53.4453740	-70.1779040
-30.9983710	51.5587540
37.7547370	32.7123850
3.7833071	59.4137450
20.7184140	64.2192260
39.9931980	23.0475070
33.5683110	4.3846558
-3.8635824	-35.5557710
82.3896880	48.7021800
-17.7087770	-85.0094350
40.5607890	-0.0602556
91.6049310	41.3296640
31.1676190	-1.6080221
29.4580500	83.1946520
-9.4193677	-50.1846680
10.8377580	-9.3651105
59.1154800	-15.6972110
38.1258450	-28.1833070
-22.3643740	-58.6431880
47.1835970	16.6512100
-19.5320020	-64.6787490
82.7900740	-66.5135850
-31.8658290	-60.8631110
-27.0906870	-85.3751510
60.0344450	-41.6310020
-51.1063750	-5.8740640
68.2147380	74.1647970
27.2854020	41.5329810
43.8219850	33.5804720
75.3340200	-26.6276790
82.1869570	55.6235700
66.8113600	-59.0770340
17.3152240	-53.2054090
56.3157090	8.8013342
-60.0814510	-83.7184070
68.7348750	-51.2994330
8.4526066	17.7441940
58.8188270	10.7327990
21.3426160	-14.0841440
-43.4418170	-17.4720710
32.8918060	74.4164700
85.3326820	14.3906520
-68.1534880	22.6757240
-55.0662540	-2.8321083
65.2585890	21.6112920
36.9225230	-13.3425530
87.3555280	-65.5133420
61.4181190	-80.4834700
-36.7949180	72.1311360
15.7450270	-71.0329910
-30.7325410	75.5955040
38.9603440	-65.0700030
5.2015195	-57.7436160
63.9295170	66.9348600
74.3879450	52.3788930
-68.0926220	16.1516990
-1.4476937	80.7760280
3.5392020	0.7039845
68.8024660	53.0462830
-41.6283510	-34.3393310
-30.1685130	-47.4847270
-37.5483940	-46.8461390
-15.5498470	-3.8182028
-34.8963230	32.9326770
-72.7787690	-43.7058710
-12.0833910	83.8443310
82.1549170	56.6513470
-11.8962610	-76.4201750
74.5861460	43.0734160
0.8801901	-50.1909240
-12.0956060	-10.8711580
60.9494460	51.4027720
-8.8683452	33.7998760
62.1466200	39.9071270
62.5883190	34.1398480
13.6958500	83.7159150
91.0156360	-58.6081930
-29.1919460	37.8948400
68.2947480	-60.7594830
71.1421290	-78.5569400
18.9805850	54.0132050
-34.1305800	-7.6545109
-12.0430650	-54.7412880
-35.9827900	-77.0925410
61.7385100	-45.5945620
89.0279870	85.3079380
7.6229963	-2.2934203
5.9184963	49.3603990
-65.9648500	-74.4021250
78.6034140	23.6761690
-50.2216100	62.1777820
0.1001072	24.6473190
-26.7102890	-49.9537530
-70.1730550	-63.6658980
-30.7428960	52.2177390
-66.5390240	-82.5732140
-33.4478920	32.0798950
-58.4795980	3.8299023
13.8838960	12.4789430
6.8454513	32.2589840
-49.6955120	61.5993370
-42.1974100	18.0526430
5.3313794	-4.0941829
69.5001510	-29.6112770
82.4469670	-7.0555279
-60.2731430	28.1007940
-62.9758440	71.8017710
-59.9917340	-71.8176660
-21.9001340	-2.2196718
-13.2456600	-13.9763070
74.9571930	0.4251311
-23.8609200	45.7153070
37.0800750	13.3391310
-48.3314030	-62.8831650
46.3089750	-58.0608600
70.5955810	31.5666660
41.9779090	44.5824540
-34.2584650	-63.8241330
3.7403224	-29.5159720
-35.2209640	35.6805980
73.1026350	-47.1742790
-55.0219140	-63.3410170
80.5621770	-39.4908880
75.1426500	8.6017785
11.7026150	84.4866820
-19.4340040	-80.5954340
11.9858250	50.4480870
-27.3046790	-4.9692298
-78.9454740	-76.9571010
-0.7928696	-84.2840290
-37.4739730	28.2011550
-36.7173520	24.2002580
-14.5957610	68.1720640
90.0390230	57.1190440
-56.6905430	43.4583630
-65.0160280	-61.9328560
-37.3303710	-75.0859480
52.3336580	-74.1224800
65.4749160	-6.3517145
68.9256430	-36.9641530
41.8459900	53.8371110
-20.5781960	15.3489760
-13.4666640	-60.9776610
57.8641710	-29.1266290
-25.9045480	-2.7703045
27.1203970	55.2470480
-49.8288250	18.6973360
-72.4148910	53.9849310
6.0841928	-40.2227960
-24.4027550	77.1202980
-18.2966990	-74.3857620
55.0760230	-69.7150000
76.4549650	-66.3507390
-12.1673300	7.7352930
31.8530240	7.8868308
-32.0798060	73.0898670
17.6507260	43.0559850
55.3131900	38.2352720
-35.3936440	-31.7744260
-59.5653420	-54.6586780
-71.7532950	33.2135090
81.4450390	53.8932140
-15.6335190	76.9038750
26.7729470	54.8931240
54.2275430	-0.0520754
24.0906030	11.4025720
-24.3747080	57.2028310
-39.7700280	-51.0633310
46.9812450	41.7132120
-28.7274310	-3.6771837
-21.0632520	-59.5340350
67.2162500	17.0701640
-18.3623250	32.6988960
75.1163600	-18.4288090
39.9002290	-15.7795770
-2.9153121	41.6692070
30.3493910	-63.4664140
-79.7200840	-45.9657330
52.7964330	-60.3670410
51.4875930	9.9490248
-8.3743362	35.6122940
-58.9662630	40.8124030
79.0966260	47.0618160
-74.1864260	64.3615650
-45.1136410	-67.9985020
-32.5852540	-40.9052020
71.4679440	3.2270729
-68.6071350	-75.9332520
-5.5901013	33.8588190
-53.4820140	-0.8713787
49.1909610	-56.8854060
78.3320040	50.5091670
33.6087670	33.6153910
-29.9332540	-72.4249120
11.0987760	-34.9046930
14.2929630	-55.3371260
-72.0848110	83.8177720
40.0311700	16.1565020
-41.3964300	64.4592350
44.9927800	-39.7919620
-71.7161750	83.3967070
11.1017750	78.5813290
-74.0680640	9.0198696
38.3834990	-10.9227510
10.1792620	-63.4791250
-77.5850510	-44.1239220
-18.1460370	-55.0570390
14.6150130	-8.6255589
32.9894800	-25.9483670
29.5521190	-27.3533940
8.5311714	-7.3498097
-81.1488530	79.5356060
50.1547020	-77.5395350
18.6244590	-9.8315899
-74.7164910	-5.3797008
54.4180180	-42.1574110
-50.5014900	11.0421940
74.5212990	-74.7803630
30.3366190	-77.1767110
75.6196740	35.3894720
-50.6380960	-11.8830960
-80.9327980	-77.4284880
78.3468730	64.0595150
23.1898590	-66.5990470
-78.4649920	-43.0786210
87.8624380	12.3435550
-63.2026440	31.0793610
11.3551490	-36.4689050
66.0226060	43.5648550
47.7758100	19.6174960
-48.3625310	26.9290980
35.0146000	65.7362800
