jMRUI Data Textfile

Filename: dataset18_nWS.txt

PointsInDataset: 2048      
DatasetsInFile: 1         
SamplingInterval: 2.5E-1    
ZeroOrderPhase: 0E0       
BeginTime: 0E0       
TransmitterFrequency: 1.2322E8  
MagneticField: 2.9E0     
TypeOfNucleus: 0E0       
NameOfPatient: dataset18_nWS
DateOfExperiment: 
Spectrometer: 
AdditionalInfo: dataset18_nWS
SignalNames: dataset18_nWS.txt;


Signal and FFT
sig(real)	sig(imag)	fft(real)	fft(imag)
Signal 1 out of 1 in file
49955.2470000	-30.1061790
49737.6710000	-34.2188520
49435.0640000	-41.4027960
49242.6490000	33.4120540
48969.7830000	-20.9780810
48752.3590000	-3.5761323
48582.5030000	-37.4311840
48302.8200000	-33.3540260
48040.9030000	-31.4413600
47889.2600000	-43.3799760
47642.9840000	21.3746960
47363.9160000	21.3740110
47162.7560000	-14.4195240
46927.8070000	39.7413320
46748.3580000	-38.6469760
46532.4240000	45.7177540
46301.8960000	-17.4338260
46106.0450000	-28.5875760
45840.9480000	-19.2114960
45674.1810000	26.4001520
45453.1470000	32.7787440
45249.6380000	-35.4792090
45031.4700000	-8.6400506
44818.8160000	-23.1538290
44548.8700000	-10.5905670
44409.6450000	10.0475210
44214.6610000	-23.8424090
43995.9440000	-6.4298172
43794.3790000	-30.4992780
43572.9890000	10.9993030
43342.5650000	25.1777180
43147.3450000	-27.3005930
42970.9670000	11.8778340
42785.3740000	17.9767510
42545.0950000	13.0747020
42316.1560000	-20.4072890
42114.3340000	19.0374800
41901.0550000	-25.0181490
41763.4510000	1.1387574
41537.4420000	-31.1206590
41338.6170000	-29.3771920
41192.9520000	-40.2202080
40956.6550000	-21.5988410
40798.9330000	34.4634370
40619.0750000	27.8250380
40351.4010000	37.6087550
40208.0580000	45.1013040
40012.3540000	1.0563319
39862.7160000	25.2416410
39600.4860000	26.7368710
39405.2740000	45.6325410
39281.3180000	38.5050820
39110.3590000	-1.0427826
38914.3970000	-3.7369817
38710.2040000	-43.8326510
38577.5620000	15.3083180
38336.6510000	-45.6886950
38144.4260000	5.6916231
37943.7320000	-38.8498120
37786.2650000	-11.2736590
37675.8690000	-36.0798780
37458.0690000	46.2145100
37296.9520000	19.0091600
37099.5200000	-22.3047810
36922.0180000	9.0433846
36801.6660000	-14.6676170
36567.1650000	-1.6996260
36372.0680000	-24.1943880
36277.5480000	-38.4295600
36083.8200000	6.9081460
35919.1050000	16.9801210
35739.2000000	-9.7160740
35521.4730000	0.8865242
35439.0260000	7.2531480
35206.4070000	40.2735630
35074.1100000	-17.5722210
34923.1110000	-17.2855240
34722.4520000	-29.7705040
34533.9990000	-17.9986140
34414.7140000	1.9525694
34224.4350000	19.0589060
34110.1470000	35.5185830
33884.2670000	30.7987290
33807.1740000	19.6479570
33574.6950000	-44.4199020
33424.5590000	-17.0321010
33250.6440000	-41.5041470
33109.2130000	22.1105620
32961.8350000	26.1346500
32798.8300000	-35.4849250
32699.7800000	44.9876840
32508.1830000	-27.9769620
32390.1310000	-6.1442066
32169.2100000	-17.0914730
32027.2430000	-0.3258060
31923.6720000	-36.1556950
31800.0260000	3.9294385
31650.0170000	-32.5424770
31482.4250000	-5.9805874
31324.4780000	-6.1480547
31145.0660000	2.1590610
31068.4130000	-6.4100603
30865.0930000	30.0874760
30745.6690000	-23.8897500
30599.7550000	2.7094625
30401.3620000	-37.7986570
30340.0140000	-30.0298200
30169.2790000	-18.2077650
30022.4310000	18.5801880
29903.2810000	-18.2330700
29689.2240000	19.5013880
29562.7630000	5.7447787
29463.7080000	-6.5875425
29321.2710000	23.5738200
29182.1330000	-25.4150320
29054.4160000	-36.0225550
28951.3200000	-32.1226140
28772.0470000	40.9988540
28652.8580000	-19.4654290
28542.4420000	32.6652780
28320.7560000	-29.3892390
28254.4760000	22.4637190
28140.9100000	23.4666680
27966.3090000	24.0450690
27825.3690000	-37.4203210
27662.1260000	-6.0316675
27589.6280000	-35.2799820
27489.4670000	37.2955350
27304.8590000	45.5612020
27214.0150000	-16.3361540
27023.2180000	28.5193410
26901.6950000	34.9491750
26795.9510000	26.7843970
26639.6040000	7.7791839
26541.6290000	30.2995770
26463.5370000	2.5919800
26264.8050000	-29.5373330
26182.7570000	20.7351770
26011.5730000	-3.2498380
25897.2720000	-36.6756260
25820.5520000	-20.1377330
25723.8740000	22.0521150
25618.6020000	-46.8500710
25436.9030000	-27.1823980
25331.2250000	40.9386060
25220.3940000	15.6780970
25109.0720000	-27.1704250
24941.4390000	40.8604960
24854.1350000	37.4403170
24757.6290000	36.2425900
24622.6870000	-41.2444000
24555.8710000	1.0371305
24361.9890000	-9.4501024
24281.7550000	0.4031522
24136.8880000	-11.7634980
24088.5390000	-4.1577529
23983.7480000	14.0539220
23798.7990000	-24.2036570
23725.0800000	-9.6468490
23593.3840000	-18.3489520
23515.1550000	-33.7957600
23353.8360000	12.9713920
23244.2200000	31.2418260
23118.3140000	-9.8259285
23016.3450000	-15.0289120
22972.7970000	-17.4491020
22821.6650000	15.4198730
22689.9070000	-6.8318451
22584.2380000	-9.0500864
22510.7730000	-16.1840110
22363.8440000	15.8679690
22340.2820000	5.7105997
22230.9100000	-45.8926160
22135.7800000	-19.1579520
22012.4890000	7.6019746
21865.9700000	43.4006380
21810.1730000	33.3896170
21650.5390000	-7.4466774
21576.7690000	36.7530180
21458.9460000	6.6831784
21391.9010000	37.6033290
21251.6620000	17.9329230
21216.3990000	10.2648560
21099.5660000	-3.1894753
20962.2740000	-43.4041720
20913.3850000	38.3265590
20824.1970000	-8.5092293
20713.6920000	-9.9796230
20541.7490000	0.3397774
20458.9360000	37.8816940
20430.1690000	-27.7997040
20276.6660000	18.4472240
20189.8490000	-42.7301420
20087.2890000	33.7342390
19969.2040000	-16.6232340
19903.7830000	22.9258350
19853.3610000	10.9583290
19705.9620000	-15.0656190
19625.4340000	25.0189150
19542.8890000	-15.0657280
19421.5430000	13.6630870
19404.4700000	-19.7318740
19244.1730000	21.7682160
19164.9950000	20.1559750
19116.6620000	-21.2204330
18997.8260000	1.4333545
18957.8450000	12.2246690
18780.2210000	3.3835243
18723.0770000	17.6575570
18637.6190000	-13.5373950
18531.8370000	-32.0523470
18483.5700000	16.5514110
18417.5890000	27.9038150
18277.8940000	43.3973900
18169.5380000	-3.7135904
18171.5200000	-31.0311510
18049.6960000	10.4401850
17967.5350000	14.2887120
17866.8180000	20.2092420
17787.5750000	-38.3076110
17695.2840000	12.4735480
17591.3550000	5.4235188
17565.7180000	1.4119523
17415.9300000	-38.6074720
17420.9370000	-15.0123210
17331.1130000	15.3261440
17242.4700000	26.6785870
17094.6770000	30.1331610
17093.4640000	-2.5741514
16942.1880000	11.3112330
16934.3020000	-10.1961040
16806.9670000	12.1421420
16691.8450000	45.7008020
16653.0980000	-10.3914760
16579.5200000	29.9455740
16484.5490000	-2.3407715
16423.6450000	-17.2908260
16352.6020000	24.5769770
16231.1580000	2.9067505
16189.9890000	34.6830360
16082.4460000	34.0348010
16023.2700000	45.7062910
16000.9870000	-6.9134080
15859.9940000	-24.4208710
15799.0430000	25.4097140
15754.0050000	-1.9193571
15639.5960000	-44.7145910
15574.9380000	-14.5979340
15549.1960000	8.5953700
15466.3350000	34.8614330
15357.9850000	-37.6542640
15276.5150000	-9.4357423
15232.4140000	42.2522850
15141.7410000	42.6326090
15127.8380000	35.8228980
14999.2120000	14.3056620
14970.0330000	-28.9479410
14854.0840000	-16.8022660
14760.0390000	-7.9965108
14722.5670000	-30.4540510
14671.3830000	-25.0722330
14580.7540000	0.3559849
14548.4260000	-4.5277719
14439.9440000	-45.2820740
14408.2550000	30.5821410
14368.3880000	22.2377510
14297.0680000	-18.6909550
14219.4670000	-34.1089910
14159.4730000	21.3832640
14098.8450000	-20.1902480
14003.9170000	32.6567240
13879.8190000	-13.8393380
13830.7460000	-26.6727360
13802.1100000	-0.5367004
13691.0210000	-37.8360600
13648.3380000	-22.4660610
13636.8150000	29.0494090
13543.2630000	36.4199930
13452.3880000	-26.4742700
13371.9970000	11.5043750
13384.9830000	36.5386270
13281.2850000	4.0200860
13245.0440000	18.2183210
13115.2990000	-2.3131915
13111.0270000	-21.0797850
13003.3130000	-35.7992340
12940.5030000	-29.6398770
12882.4970000	10.7084230
12849.1830000	-7.1562815
12830.8240000	22.1343240
12736.5340000	-41.6632170
12661.0820000	-33.9237020
12644.9060000	-10.9026760
12555.3290000	-11.9457900
12521.8270000	39.4268520
12452.4630000	-21.5443720
12339.3440000	16.6317490
12316.5520000	44.7954020
12272.7750000	3.1359797
12224.5520000	-17.3867900
12099.9650000	-34.2736410
12047.3350000	-23.9560100
12043.8630000	-10.9634780
11951.9580000	38.1180930
11924.8280000	21.4036650
11842.2250000	38.9042260
11822.0670000	2.7721123
11739.9960000	32.7625840
11671.6120000	-42.9543120
11675.0380000	-19.5267630
11590.5190000	26.2649620
11532.5660000	5.0508528
11491.0080000	-45.5803430
11399.0150000	-35.9028660
11379.2860000	46.8065410
11347.5270000	23.6761720
11237.1650000	12.0785840
11164.2080000	-41.8189130
11151.6930000	23.4801190
11136.6470000	46.6368800
11072.1260000	39.8786270
10992.4100000	44.0014350
10987.5630000	46.2619210
10865.3710000	-4.1835948
10883.5500000	-17.0606100
10811.5990000	20.4742350
10738.1470000	-5.3911597
10713.6380000	42.7357200
10672.7390000	-12.6674950
10553.7290000	40.8517880
10584.5100000	1.7448736
10485.6730000	-16.4147350
10476.3460000	0.1738037
10359.9810000	-42.2202220
10336.6740000	18.3298160
10305.3750000	35.7963660
10215.5000000	34.1338400
10168.8980000	-24.0001610
10156.7960000	4.7937998
10141.8480000	28.2137870
10012.6650000	0.9987198
10046.8000000	-6.4488912
9976.1424000	32.2294790
9911.5905000	-40.8334540
9885.2306000	-12.8061080
9817.5190000	6.1248514
9745.3716000	29.5817310
9708.8433000	17.5089840
9717.0729000	21.8656320
9666.4191000	11.8151350
9582.0888000	7.9590116
9521.3626000	-9.2049052
9515.8014000	-39.8314460
9422.6133000	1.9968622
9446.7438000	-37.4153530
9380.2344000	4.5816767
9341.0955000	-24.2469840
9259.2752000	36.1364310
9203.0561000	5.6040186
9204.9311000	39.3057770
9141.9895000	4.6312895
9112.0090000	27.1749190
9040.1474000	42.8773100
9009.9199000	8.9705577
8979.4214000	11.4582420
8963.8413000	16.0988230
8869.7254000	42.9980550
8837.9857000	-1.0744666
8815.6835000	-26.0405230
8778.5416000	-26.9255990
8768.9837000	8.8371539
8698.9016000	-36.3894110
8649.5991000	-35.9573700
8569.2369000	-0.7830523
8562.5480000	-11.1006060
8546.7983000	-3.2128012
8449.8191000	-22.4663720
8485.8341000	-24.4669490
8422.3659000	1.6424692
8351.9143000	-13.4960970
8370.6956000	6.9924206
8270.3186000	-30.1448990
8292.7559000	-15.1574210
8170.9812000	-34.6561110
8218.6317000	6.9243146
8180.8094000	24.8241220
8130.2836000	-16.1107940
8049.4115000	-29.0054880
8030.0198000	-25.0284810
7938.6338000	-11.1048090
7950.0292000	-24.4323060
7911.3049000	25.0730430
7917.1120000	-2.3926700
7823.4827000	-45.3299160
7762.9201000	6.6561311
7724.9124000	8.8186535
7716.0025000	-1.1206415
7684.1581000	4.5354644
7644.9346000	-15.1758520
7653.8198000	-41.9363540
7535.6598000	32.9088330
7556.9498000	-11.1273500
7504.3934000	-7.5923510
7463.4752000	32.4525520
7443.9341000	22.2438540
7412.0925000	12.4545350
7372.0832000	-18.2466690
7298.8901000	46.9312260
7269.6901000	-38.5388370
7241.7031000	8.7281165
7198.9443000	-20.3987200
7216.1532000	0.9905801
7127.9779000	21.5881930
7176.9961000	-20.6506040
7086.6995000	-28.7298760
7073.9567000	44.1082290
7014.4376000	-7.0902929
6996.4919000	-39.6360930
6938.0563000	43.5250860
6936.1024000	2.1811440
6873.9669000	6.9272259
6906.5837000	35.5213690
6838.0695000	-4.9861995
6840.9382000	-27.8490590
6726.1171000	-27.6997930
6713.5420000	7.6183116
6733.7695000	6.4014964
6698.4166000	8.0378944
6663.7563000	-41.8546690
6589.8094000	40.5459850
6586.9581000	11.3387280
6505.7447000	-42.1443890
6505.9503000	34.0020950
6491.7783000	35.6162980
6486.4060000	-8.5216229
6403.1803000	-10.6956050
6360.5729000	-1.1666587
6377.5987000	26.9341280
6380.1819000	34.0868120
6281.6327000	23.0720150
6314.3290000	40.0801450
6246.9338000	0.4512829
6252.8449000	44.0015490
6232.8342000	-18.2274380
6116.0351000	-7.0574154
6131.5513000	-28.6895160
6095.4764000	-12.3918890
6108.7500000	34.4596960
6029.6396000	27.5559710
6055.4734000	41.2953920
6011.4985000	-28.6379410
5914.6740000	20.6741440
5930.9031000	35.7962490
5896.1516000	26.8330400
5896.9292000	-3.7626100
5826.7578000	10.5204420
5847.0041000	-30.6265770
5819.4089000	-14.7104220
5778.9535000	23.7651020
5727.1525000	32.4151180
5706.0410000	39.6716300
5712.5516000	-47.0273890
5691.8703000	41.5587500
5637.2486000	-4.2761431
5652.7801000	22.7066220
5562.9807000	0.3837992
5551.8442000	-29.1499560
5564.6157000	-29.1333320
5522.4484000	34.1436250
5444.6674000	40.7767250
5476.8029000	-11.9949020
5457.8458000	35.6840960
5354.9690000	-36.8526360
5400.7397000	-37.6333340
5323.1541000	-29.5832570
5333.0997000	-15.6855430
5287.7669000	-18.5523300
5304.9524000	-13.9909290
5223.7764000	-13.8380350
5210.3134000	1.4634621
5203.1078000	46.2883060
5201.2193000	20.2717850
5187.9637000	-12.2859060
5093.2611000	-8.2839430
5083.7899000	-32.5038350
5098.9849000	-4.4595250
5058.0472000	-36.9911970
5057.2009000	27.5082720
5005.1666000	19.4465380
4980.8322000	-2.8963684
4969.2977000	-5.2140870
4978.1235000	14.3720750
4949.6838000	-43.0351190
4851.5251000	26.1258160
4905.6822000	-27.7580880
4883.0899000	17.9103390
4832.9211000	-20.9416780
4775.0577000	-8.8346677
4785.4536000	-42.3252840
4794.2323000	-31.1347970
4734.4942000	-11.6164470
4678.1734000	-13.6295200
4719.2542000	23.7267730
4695.8165000	0.2442591
4645.0232000	-20.0568010
4648.9778000	-2.7570112
4567.8643000	16.4337230
4613.3488000	-24.3144660
4524.2845000	8.8056006
4513.9094000	-39.2943630
4530.7760000	43.1619110
4527.2911000	-9.2851256
4425.5882000	-43.6190540
4456.6940000	14.8355470
4476.3456000	15.8477640
4398.7787000	-45.4320690
4359.6107000	10.5327320
4391.8131000	-31.9527470
4341.9544000	-30.8621760
4350.2482000	15.1550620
4314.0216000	-3.2588913
4281.9091000	24.0752300
4240.3298000	11.1898000
4247.3032000	-39.5330610
4186.0783000	27.5558570
4163.8534000	-38.3460440
4197.2932000	-36.2070050
4204.8048000	-7.0769446
4160.1262000	-35.8660990
4136.5096000	-5.2725206
4074.0343000	-12.8370110
4068.9168000	42.2963850
4053.3716000	26.3482000
4049.1033000	-46.7822840
4044.1654000	45.7506300
4010.4029000	29.6269840
3971.6915000	16.6068280
4014.7023000	-24.0034340
3931.5926000	-26.0266470
3958.9373000	17.2786920
3940.5029000	10.8967640
3867.2127000	7.8586875
3837.2106000	24.8860540
3904.4535000	41.1822510
3844.3680000	30.4813330
3824.2681000	-36.5374510
3792.1135000	30.4539230
3814.2528000	16.3610050
3738.2576000	-8.1041314
3727.9224000	29.0117180
3739.1785000	-36.5409140
3759.6350000	-31.7386300
3709.3836000	-37.9936140
3659.8169000	-8.0259489
3654.3278000	-31.3637370
3607.0326000	-22.5064100
3618.6162000	33.6469400
3640.6810000	-40.9628820
3606.1219000	-33.6695000
3541.9430000	-10.2574080
3564.7516000	36.0998530
3535.9231000	5.0192476
3560.0042000	-15.8347240
3518.2805000	-12.6493630
3528.8665000	-13.4520800
3439.0592000	-16.7350670
3465.9973000	-0.7397503
3476.1202000	19.5254020
3457.6092000	-45.3297070
3450.2556000	7.9718179
3406.8967000	-3.4356573
3430.9469000	-31.6516650
3381.4713000	45.7361280
3368.7924000	17.4796630
3307.6626000	20.5514380
3298.2145000	-36.0206490
3303.6036000	-10.9648990
3293.2447000	31.1327730
3294.5048000	35.2574390
3241.6087000	-37.8151240
3287.3855000	33.1619780
3190.9734000	-14.3829700
3195.1629000	-41.8758320
3192.0302000	18.4311120
3217.1501000	1.1412592
3210.5013000	14.4482590
3114.8919000	13.1343000
3152.2584000	-12.9717070
3109.6173000	21.8690750
3099.5757000	-1.5536486
3111.0637000	-40.0561660
3090.4145000	7.7067100
3052.1865000	11.7804830
3068.8810000	28.3269920
2996.8954000	-2.6711292
3034.2872000	-41.8611070
2997.4275000	-22.7223560
3035.3016000	-38.7543590
2979.2466000	45.7361260
2932.4573000	27.2751720
2994.2999000	36.9212980
2949.9833000	25.5496720
2947.3197000	8.9504089
2916.4455000	1.3418745
2901.6451000	10.4601230
2847.4298000	32.9223050
2856.9322000	-35.9201030
2894.6859000	34.2289750
2850.8959000	6.3176011
2803.6401000	19.3743030
2771.1773000	-45.6073340
2790.5581000	27.2975810
2827.2240000	16.3582710
2737.4855000	14.4152060
2791.7053000	47.0446890
2719.7445000	-45.3700470
2750.3094000	9.0828824
2708.5670000	-4.1625526
2754.5270000	-37.4127190
2693.6725000	26.7969070
2712.2893000	-13.6084440
2708.5388000	21.8852730
2668.3930000	-3.3838789
2615.1844000	38.2013080
2638.7126000	33.1200350
2609.8781000	-34.1143320
2595.7411000	-31.1370020
2562.9839000	-44.5001190
2629.5517000	1.5175933
2575.9255000	30.2247270
2555.9501000	-7.0282170
2521.7497000	44.1468190
2554.9583000	20.4366650
2510.5538000	41.8995220
2563.2385000	-5.2617345
2522.3302000	43.0744170
2470.1610000	42.2527850
2474.1996000	-34.2118940
2474.4897000	45.8302400
2477.8047000	27.1250170
2477.0040000	41.6537760
2418.0421000	-32.9427810
2443.9779000	-11.4767050
2415.6486000	15.6583610
2410.1758000	27.5495770
2430.9541000	-42.9120290
2409.5708000	39.4434360
2398.8018000	-42.0764670
2361.6826000	42.6553520
2367.4592000	8.3718084
2318.3997000	46.1282500
2367.4725000	-19.6380910
2313.4893000	-30.0034240
2348.0003000	28.2737070
2315.2131000	34.0482600
2232.9339000	-28.4806000
2306.7797000	-14.6195780
2217.2020000	38.3566220
2201.9531000	29.6817560
2253.5533000	-43.3459780
2243.2305000	19.3190150
2248.7644000	0.9782514
2230.6167000	-36.4506190
2220.4975000	-45.9861680
2222.8410000	43.2232080
2196.7876000	-38.4103040
2156.6170000	-5.1951123
2164.8309000	-40.7198490
2144.1009000	-23.0166290
2134.6267000	-21.6128890
2166.7965000	7.4059606
2157.9713000	-45.3442540
2087.9537000	26.3352400
2070.4700000	27.0716610
2090.0331000	-9.5768960
2088.1345000	2.6226774
2104.5267000	11.2407290
2061.3840000	21.1870840
2033.1017000	-35.8901660
2021.6567000	-44.5120500
2028.8241000	-34.3735350
2011.7634000	-17.8982640
1978.4387000	4.2064341
2003.9724000	8.8547911
1988.6428000	-30.5813730
1972.5871000	-11.0295380
1945.9518000	19.6170940
1989.5728000	32.3432930
1907.6389000	34.4741210
1954.5896000	2.1784431
1942.8351000	1.9953623
1898.1862000	-35.8794440
1888.2409000	22.9364230
1886.3788000	21.0469600
1862.5177000	-36.8977460
1842.9462000	11.5764020
1919.1101000	-24.9248700
1911.6849000	-31.8334310
1908.5636000	0.6457971
1848.2248000	27.8189860
1842.4515000	-13.4418640
1872.2705000	14.5867120
1832.9757000	22.0268840
1842.5161000	-23.3418680
1811.6660000	17.4427610
1831.6549000	1.6796912
1785.2503000	42.8594920
1770.9914000	-26.7070620
1756.5406000	-37.6406890
1760.1770000	-44.2222540
1715.6094000	-29.3797670
1738.2276000	-18.4903610
1707.0907000	-23.4331100
1756.5671000	0.0119654
1690.4474000	-34.3693600
1725.6518000	10.6591670
1728.1955000	-39.5075640
1732.9739000	25.8433060
1718.0850000	-33.1646010
1659.9070000	2.2129290
1707.6501000	-22.5467750
1633.0259000	-13.6413100
1628.0802000	-19.8374770
1675.8198000	-14.6179680
1668.6930000	20.6672160
1675.1775000	10.7663710
1651.1223000	-44.0343450
1635.2116000	-27.2620270
1649.0443000	-32.3249210
1611.4002000	-1.0483973
1604.4723000	-46.4136930
1553.1254000	25.8216750
1598.6244000	11.0803530
1606.0820000	35.0150640
1524.4087000	20.3945310
1558.6451000	-39.9912740
1591.7182000	27.2007050
1554.5712000	26.5589100
1519.7680000	44.6293080
1512.2915000	-9.5929513
1512.3907000	-25.0397880
1483.2494000	-17.4070710
1498.1676000	38.2370670
1478.1119000	-1.4397090
1478.8530000	-42.4775410
1532.0526000	-17.5681830
1509.9701000	-15.0264940
1442.3590000	-38.2786900
1440.6076000	-16.9066380
1485.2756000	27.2864610
1435.0091000	-17.9711180
1407.2879000	-19.8224940
1476.8231000	-11.3588200
1434.6685000	-19.9978210
1401.3366000	-4.1929170
1406.5088000	46.7538140
1412.1943000	-34.9317240
1429.0961000	7.6849016
1448.4120000	-9.8982014
1364.4996000	-7.2926043
1404.2417000	-5.6183807
1357.0075000	11.6236670
1388.2813000	-36.3234060
1387.5259000	-19.5220370
1354.0908000	-36.3622450
1354.0420000	-35.0769870
1364.4491000	38.6373420
1342.5875000	13.0755490
1297.9868000	5.6887635
1352.6403000	44.2005200
1361.7173000	25.1827870
1329.3743000	36.1844540
1308.3770000	4.8969701
1337.6092000	16.3511850
1259.4262000	35.3661710
1341.9322000	27.2218940
1285.8766000	5.5721512
1266.6458000	-17.7049960
1276.7228000	44.9223220
1303.3945000	-1.2734961
1229.6342000	-24.3312270
1285.4246000	41.4120550
1261.6602000	-46.8924040
1290.3588000	19.7621110
1280.1518000	7.3492566
1188.4201000	-38.7232690
1187.8194000	-33.3727620
1258.5605000	11.5740610
1199.1771000	13.0450470
1178.9613000	-8.9886796
1168.4227000	-27.3572590
1189.1359000	39.8137570
1230.2848000	39.0477240
1147.7128000	-46.0327260
1212.0107000	-32.9767940
1183.2180000	38.5996140
1127.1445000	-24.4684690
1163.5384000	-18.0718740
1159.9708000	-27.9139450
1116.6490000	32.1561990
1147.5167000	27.1036820
1162.7345000	1.9090547
1131.3243000	-36.8722260
1100.7335000	35.5507430
1160.9112000	-26.4170310
1093.3029000	-1.1494101
1137.0586000	45.8641300
1085.5424000	24.7252270
1064.0002000	-28.5742670
1149.5416000	10.3902270
1054.2252000	10.0609340
1073.0592000	-26.8496740
1063.7220000	0.9511301
1045.8609000	-45.4557860
1078.0365000	42.4609940
1051.6088000	-5.2847068
1053.5285000	-19.3491240
1040.2577000	32.7846100
1060.1509000	-21.2658260
1097.1996000	-46.7431480
1047.9197000	32.9323640
995.6848100	-47.0700530
1032.4542000	20.7410170
1064.6564000	-3.2924061
1023.5851000	-41.5274320
1027.1710000	19.4828320
981.6144800	-29.7169600
1039.6430000	26.3497400
1004.5273000	-45.8892110
1016.9518000	-35.5337810
962.3887200	3.7533226
1033.8495000	34.1805350
1033.4620000	7.9941467
969.0422400	-9.9893584
984.1335600	-44.7961480
1009.7446000	15.8601530
980.7407100	0.7781935
1005.3416000	12.5503700
955.2042800	9.3443233
919.0602100	-39.1226310
915.4135700	-17.5512440
977.2837000	40.7145870
920.4897300	31.5403790
982.8180300	-11.5408480
918.0287800	42.8573800
899.8187200	8.9381564
903.2191900	-6.9044306
935.7438600	19.5226820
925.7202700	2.0746593
951.1791900	-41.2032360
918.7363000	-43.1498860
863.4492500	-10.8296280
865.3574400	9.7167999
907.9416700	6.2823869
929.1541900	-21.0121080
889.3061900	-12.5377110
854.1133200	-7.6732727
919.2171800	-9.7674144
892.1395300	24.1500620
896.3197700	26.1594670
845.4427200	-34.6469510
887.3944400	44.0393320
904.7641200	-7.1199210
842.0816300	-38.0711930
873.7511500	5.9962107
847.5445200	-34.7652070
819.1710600	-18.7014980
828.2047400	-17.7586340
806.7080200	1.6795998
831.2394200	-8.7460699
794.4562300	-27.7957660
812.7389400	-18.8375490
857.9538500	-34.4646590
806.7315200	11.4856850
793.6829900	-45.1094290
842.7012300	24.5584700
812.8172900	-24.8507680
764.5034300	44.8174240
834.9777500	-25.0495450
806.6973500	38.2275860
759.7731800	5.6000706
832.5890600	-5.6145060
758.3781800	20.1536760
796.6843000	-26.5591800
796.4264600	-41.3293560
772.1706000	-38.5562730
762.3449500	-23.3131700
728.0596600	17.2181760
794.5501800	16.5074770
734.4211100	-9.7680092
793.0861300	44.7291690
788.4000900	36.7618980
718.7189900	-12.8615520
695.8248800	43.5417600
693.8168500	4.3550092
764.0759100	13.7823590
778.8137600	24.5987820
683.4527400	-38.7942300
761.7157900	44.8455260
724.8490900	-12.0912230
736.4351800	39.4221270
717.9997400	-42.2566960
742.8981900	-16.7714870
687.0062800	33.7837450
664.0419500	38.6925610
692.6330500	36.8412700
745.2995100	-1.9360142
710.7461700	-38.9346540
646.0071900	30.0302130
681.6755500	-2.7795612
647.1937800	40.4009330
677.1548800	20.6556830
694.5205400	-8.3930480
666.3604800	-43.8442630
705.2119500	16.9743170
654.7944000	26.9019370
675.1861700	-12.9389150
627.4151800	3.8199230
621.9068200	14.4099550
700.2707400	-28.1416870
663.0240400	45.3051860
650.6184400	-4.2033373
651.1612700	-27.0261400
606.2460400	32.9757830
686.1894900	-2.7532999
624.9768400	-22.3502740
622.0960200	-16.0834180
652.2293800	18.2755440
669.6059800	-3.8253080
615.9764900	27.5486200
638.0233600	-0.5663107
649.6002300	-17.2558980
654.9413900	-30.5163280
636.6807800	37.0739300
641.8857300	41.6569990
632.8992800	40.8278540
617.9450700	-30.6414150
582.9770500	-15.9462540
564.6174600	22.0214850
641.5065500	4.9765143
567.1115000	-40.8204980
598.8092500	27.4161580
600.1118400	41.0744840
565.4460300	7.5966010
544.7320400	5.3383367
621.4697700	-36.5586400
586.0227200	9.0651190
565.5402200	-41.9110010
560.3228100	-25.2947460
526.7352600	-43.6624330
574.9901200	-11.2630180
555.0829100	19.6536370
540.7556400	-17.0396340
556.8307300	-46.7721690
588.2044200	35.5019510
552.0801500	23.2995660
562.3383200	-1.3588534
588.8387900	-31.9971930
547.7988300	34.0593600
588.5441400	-20.3970360
518.1601500	-46.4456750
582.2336400	-17.4897420
557.4004800	-2.6319697
563.8072200	-46.1407300
485.2203100	-25.1752480
513.4306300	-20.0043850
564.5531500	-32.5842670
480.9083000	-10.7750820
516.2155500	-40.9122650
535.0377800	-19.9505810
475.8572100	5.5814941
475.1824100	-20.0660970
545.9645700	-3.1638149
522.6428300	-9.9087140
502.2431100	38.1910570
507.8116100	4.1359199
464.7137700	-26.8281080
516.9771800	-30.2775720
460.7290400	-34.9671730
471.2384700	-17.4073680
490.6411700	22.1089220
464.5551800	-11.4238840
499.5629000	17.4433450
443.1308600	-5.0953751
455.3604700	28.7227900
453.3334100	30.4946150
458.1023700	16.5214370
485.7447900	-13.2818360
495.6652400	39.9193690
507.8672900	9.3507735
423.9096200	37.6130370
456.7451200	-42.6405030
453.1723100	7.1136339
496.6206000	-36.2687300
420.6525100	-19.0039740
434.3347300	-28.9891190
464.9793700	-14.8290270
460.2443400	44.7744330
447.5986600	8.2106099
419.0881000	40.3559260
466.2808200	-14.2332020
430.9602700	1.6741746
407.6960900	-14.9051870
469.6874400	-20.6011450
437.4592100	-31.9001310
411.3861600	-35.7204230
438.0206800	22.7461500
465.1603300	-11.1071130
456.7052300	23.2379230
407.5733900	26.1176910
440.7729700	8.1457790
461.2665100	-24.7085000
432.4578400	14.5400160
446.4111300	12.8135470
458.8557500	-34.9823240
379.5710100	7.6933142
398.7463200	1.9791880
381.6676300	-6.1445282
403.4312800	46.8805330
425.0801200	43.4010480
441.6586700	0.0272786
422.4934000	40.3340460
432.1276600	26.7904740
379.7756500	29.7558760
390.4066700	22.5759750
390.7243100	42.0867150
373.9797800	-2.7655803
396.9213500	-25.4133270
437.7471900	1.1644539
391.0989500	22.1977120
394.4948100	44.8934310
370.7341800	-14.5163680
409.5496100	-24.5109210
377.3003400	-39.1633190
407.4994900	-41.3305790
338.5473800	18.2833940
358.2184600	14.7515780
402.3261800	15.6817110
362.1771300	-2.9806781
335.8595000	-24.0492550
336.6588300	-34.8896780
339.2106400	-15.1551920
373.6053100	18.7601430
341.0914700	13.3690030
408.0745800	5.3129072
337.1127800	26.9598110
386.6210500	21.4001630
344.5599000	3.3066743
350.0842100	-11.2587910
346.9056700	20.5410780
318.8149100	10.3874330
313.4912600	-0.4761079
308.2048800	44.4545300
317.2335700	27.6685980
303.5326700	-21.1922280
393.0622900	-18.2922760
369.5187800	29.7619390
341.4501800	39.8321650
343.3662600	-1.3550602
384.6970300	2.0866260
377.6265100	44.6486350
347.3042600	-0.0431878
310.2268200	-13.2803200
362.7142200	-0.2860191
329.8315100	31.8998960
295.6070400	-6.2176139
297.9319300	-42.3200030
364.4863400	-30.0078710
321.0464100	34.2581640
349.1501700	-21.0097430
343.2494600	-42.2920260
342.6122300	-15.4318650
299.9483200	-41.4395690
277.6672700	-39.4210580
351.0698100	19.3720040
326.7963700	-3.2858166
272.5611900	32.7748260
331.8262400	9.7806740
343.8276800	26.4451010
295.0365600	-14.7465160
305.3460900	5.9712748
326.7399400	46.4910950
315.0484600	15.7371120
338.1910700	13.2095070
285.5764300	6.1579158
267.6342500	-29.2471950
340.6668600	-11.3064280
289.6238500	0.9075360
313.9028100	-46.7130580
253.7621300	18.9099250
267.0877200	-14.0947350
277.9886900	14.3014420
305.2403500	11.4397990
275.3827800	14.5706570
266.9286300	7.3493263
297.7032700	-35.4284800
303.3385500	-37.4871310
259.4514100	-39.4153060
235.8828800	-29.8248720
288.2922500	-40.0369870
257.8831000	9.2268762
316.6015300	-41.3631090
233.9665900	36.0011050
266.2612200	12.1577470
261.9482100	-25.6981350
244.9316900	12.4511340
309.3354900	-45.8551990
311.7788900	38.0657250
250.4504800	-0.2342974
262.2100600	7.8374282
286.4566500	9.9126957
287.7519900	-2.3450593
280.2976100	-4.3764523
262.5127000	-5.8268837
283.9356300	-20.4949810
224.1828900	-26.7326460
280.4405700	29.4573010
258.7929200	-3.0524147
252.2990200	-46.1516330
246.8191100	-19.0225170
288.6224900	-38.8260110
270.2237200	-11.3094020
234.9638400	8.2829604
289.5558400	-42.7049250
267.8590900	36.6422540
277.2660000	29.1222960
294.2079500	44.6991770
290.0621400	-26.1524930
263.2712300	-15.4216100
213.4538500	-20.9799530
289.7745600	9.2925562
286.5793200	-10.7990020
260.6962500	-45.5025870
227.5590600	-34.7800630
240.7019100	36.9573600
251.4103200	31.3585820
208.8669400	38.9410600
264.9655200	-20.2685240
227.2311900	16.8843750
254.3939000	25.7303200
274.0713800	-11.8327390
243.4111800	-46.5687080
263.4468900	24.0920320
218.0089300	33.5794480
248.9157700	8.3046440
244.2732400	6.8207219
198.7163000	-39.9571610
211.5836400	20.7351820
256.3077700	-36.4398710
180.7668500	23.3072660
254.4682000	4.7641853
250.0757600	28.7931520
242.8599700	-40.4504840
249.9340200	35.8635690
231.1771000	8.7080958
203.6627000	35.7960540
257.9400200	41.8213160
234.8101200	33.5652100
254.6894300	-36.6867900
166.6962000	27.2537020
205.3336200	46.0728930
203.5674400	-26.8069020
242.2072700	-30.5871800
253.0304500	31.9567430
164.4764800	-12.9242520
177.0004600	-32.5829110
184.2876700	-38.7034500
241.3573000	-19.8674570
244.3396100	20.7417490
209.1634500	26.1596220
197.8135000	-45.1516930
156.0817600	31.0892210
170.9558400	16.2218820
207.5333800	9.7081726
189.0027900	36.7081460
189.3765600	45.8715070
159.9715000	-1.7056811
221.0034100	-39.7238490
190.8117800	-31.3210510
188.0184700	43.1329740
162.3480800	-27.7436560
208.7604200	11.4551360
227.5265300	-4.8273929
177.2499900	15.1540890
179.2492700	-39.3710510
217.4255600	-37.9379690
163.3137700	33.4347420
157.9315000	-2.3279210
198.3411700	36.2251400
224.3824300	9.8041898
163.0783300	26.6238350
145.7472500	33.5803790
203.7696900	-11.6273680
135.0174300	0.0303568
163.1220700	-19.0836380
193.1072400	38.8137850
152.4129200	25.0240040
199.7158600	-23.4453940
132.7894900	1.2523523
212.1943700	22.6418220
153.5739400	1.8045145
188.7774400	-32.5142820
128.0741200	39.7010270
179.6530100	-19.9200230
128.5186900	20.1760350
185.6287400	-32.0057510
182.4562100	19.9355540
143.2007600	-33.9105530
203.4334400	10.3379870
126.8955200	46.3669060
195.1043100	-2.4406560
169.1222800	46.2234700
196.9831500	2.9973044
159.9685800	33.4391660
166.8823600	31.6672100
187.4860700	-23.5181140
161.2732800	-35.2377160
191.1179700	-10.4913990
119.7651200	43.3547110
152.6345200	16.1943850
158.1819100	6.6591964
122.3823500	22.4825410
173.3469800	7.3279207
183.5210300	45.4261770
164.6965600	-34.8406930
132.9288100	-38.8977850
151.4516400	-7.4687958
142.9039200	-46.6350910
161.4232000	-5.1728395
115.6730300	-13.1821090
170.7693700	-10.6783690
152.8878000	-27.8716980
119.7281700	-3.2882760
165.3767800	3.0264246
152.8356200	-23.9677110
123.5359300	-9.1771600
179.5865700	36.2739370
121.8969900	32.1802850
181.4773200	-43.2773990
159.2873400	-10.3867680
115.0963600	-33.4572620
126.6713800	-43.5891610
172.8122200	-43.3574790
176.9644500	6.9639505
123.2020500	-12.0571750
167.9264500	39.5584380
181.8297300	-45.1692670
184.4215000	38.0505040
114.8824500	1.9310759
176.6431100	21.9988630
149.6239000	43.4135270
152.4244900	6.6197965
113.3832300	-2.3972206
176.4787400	-17.0749340
116.9300100	-42.3189040
175.0941600	-28.7964540
149.3533500	1.3244878
98.3306140	-22.2781990
134.1384300	-5.8704520
115.0340900	39.9169590
162.0820000	-16.0164390
109.7768000	-19.2278980
86.3652130	-38.6822050
158.4222400	33.0615790
116.1416300	45.3182700
151.3952400	5.8594792
137.4715100	-44.4603060
123.0665000	-12.9412800
131.6164900	-43.9176910
114.2176100	-36.7175480
140.4822000	10.0801830
146.5546400	22.8111710
112.9707600	-45.8947910
144.9009600	6.9119763
78.9124060	4.3537187
153.5730700	-40.2352360
96.5858540	19.1187450
143.0640800	11.4770210
88.4581690	28.1436720
132.4336600	33.5461510
86.1197210	15.3102440
129.4944700	12.2778710
95.7195370	27.1455360
108.5148600	-13.8342520
76.0651100	38.0612480
113.4728300	-38.8910360
135.7120900	41.9969350
141.5315600	-14.0871350
138.7452100	10.2751430
90.9825610	3.0307250
138.1348200	-0.6560824
77.1890960	3.6357717
140.3170500	1.6563036
74.3194740	-38.1713790
139.3623300	23.6144000
153.6683600	-21.4910750
90.1070590	-3.9835116
66.3708660	4.5054994
77.1027040	-9.0978427
120.0219900	29.5303730
65.9209420	-42.2213890
76.0636460	-23.3542880
132.4996200	1.9658603
97.8370140	41.4616620
60.5362420	-15.6725590
72.3129630	26.5718330
150.4660600	-19.0419260
60.0384200	18.4411670
68.8418980	-18.1244400
132.2868600	42.2115920
61.1808690	-43.7256950
98.7407480	-44.8917380
82.8312450	37.1272220
128.3698500	-17.3716510
135.4908300	-36.5344980
127.4169800	-0.2924625
75.1021770	28.9382450
131.3439800	-44.9299910
82.6171440	7.6924440
126.8102600	-26.4878130
108.0461600	-16.7594610
142.4502800	-40.6148620
76.9232890	-37.0396380
74.0232250	-40.6233850
52.2036390	0.1975824
134.5769500	-11.3817280
123.0572600	0.6943631
72.5471010	-19.6128580
96.4245680	-25.5111400
113.1231700	-8.0820852
69.2983470	2.1085787
139.9355300	17.0647430
57.9255540	23.6765560
92.4751210	6.0903809
50.1772080	-45.9961410
91.5401770	35.7751220
120.8455200	31.0408220
81.7105800	-36.2527540
112.3673500	8.2771879
79.9049280	-14.6018720
56.7261260	7.5446796
108.9266800	29.8529450
127.7076500	45.9362620
108.2736100	44.7391740
120.8407400	-21.1956730
72.6254840	-7.4241559
131.0129800	2.1090431
112.2758200	34.7387210
132.9859000	-20.0661040
129.1255700	7.0863434
110.4186200	20.4276020
117.4338000	-46.4484540
107.7009200	17.2654200
79.4584280	4.2451556
120.9524600	-31.7511020
109.4688500	-30.6604350
114.8874600	16.9698120
98.5735280	-0.3691028
49.0696920	-26.0784540
52.6370870	23.9757660
111.0388600	46.2615680
103.1049400	19.5025200
53.1410370	26.1435550
107.9163400	-14.5826180
124.3682200	-0.9122011
57.5320190	1.9538607
37.6898480	36.2377590
110.0621200	31.4623350
126.2429800	-30.2270540
80.8922510	-15.1967870
57.3689930	-46.1750030
109.1662900	-25.3260850
77.5231590	-35.4992250
37.0652230	-17.4878010
79.2885210	18.8357470
113.3739500	19.8276170
107.4993200	-29.6273070
59.5965420	-3.9229186
122.2073300	19.7437210
40.0872880	-42.4244410
74.0159030	13.5396150
103.3166100	-38.0566010
109.7654600	-44.4811530
58.9464500	6.2145582
55.4852360	40.8275070
106.8184000	0.5389928
35.3625740	4.6826692
94.5101890	-27.3568910
41.4791700	17.2394170
96.2822050	19.3986020
40.5977270	-42.5144310
53.2523720	45.2748720
67.3766840	24.8135450
111.9489600	43.5949260
95.6339560	43.4704060
28.1460280	41.3623340
32.4853660	15.2931030
39.5635060	1.3059782
83.5484550	-34.0078760
80.0365550	45.9155260
74.8832530	1.5962922
59.5122720	19.1575090
65.2745490	42.5126310
73.3032220	8.7713587
57.6872690	29.3111350
89.0927710	-5.8941414
55.0262240	-25.0904300
112.7154900	34.8222660
27.8322880	25.2694170
35.8799560	-24.1005280
24.7120050	35.7432050
60.0734420	-34.6458680
96.0733040	18.1901480
72.7618060	-2.8101497
46.9026260	-39.1062180
39.6310960	-4.9110749
21.1638820	14.0656740
42.3609920	-36.5538450
78.3248230	-23.2442340
19.3783070	13.7910950
26.4802780	45.7003860
83.6792990	7.6241836
20.8326560	-37.6411460
56.5326870	9.8696832
75.7633560	6.6252095
103.0444200	9.5995676
34.5749820	24.5670570
22.3184670	29.1492280
27.9946040	3.8474807
81.9759440	-31.5345700
63.5917690	-35.0267960
18.8531660	-2.1208065
85.2197010	10.4670510
48.9915910	-41.0149980
97.3821110	-41.0307240
30.4406590	-8.3421351
89.7254750	-32.5788020
49.3962840	-20.5298320
72.2286310	-34.6486240
16.8826830	-21.4846620
33.7784870	46.6656870
76.2918750	25.5464690
82.9787040	-28.4537330
53.6475930	16.7375180
43.2991670	38.3172930
93.6963500	-43.3011240
89.3922150	11.7843350
62.4763880	22.1677020
24.3931680	-42.7254590
96.0794880	19.1712530
77.7823660	-18.5141790
87.4626600	-25.1576800
63.7885020	-29.8640560
78.9777080	-19.2682630
7.8599627	-34.3440450
80.3867880	-30.3988010
57.2670670	-44.8220110
74.5977420	6.0552088
73.5147580	-4.7744671
96.7052930	-37.4239140
24.9181080	18.1011570
63.3307210	32.2477290
22.5095530	23.8735870
22.5946270	19.8005870
29.8826640	-15.5239890
62.6187400	-11.2131100
47.9331230	-31.1251250
6.7202900	28.3693560
85.7831050	-39.6199150
71.3610230	18.1980220
93.9494810	-34.8977970
14.0551240	-7.7786275
82.7149680	-5.3058671
54.6674130	-14.3802520
91.2818240	18.1197920
61.5857530	37.4866630
43.3939830	-26.1536510
32.9636250	-1.1181065
46.1897090	-13.5132640
47.2709460	-17.5321640
57.2214580	-38.7036060
70.7700750	-16.9946340
73.8077950	-15.2666480
73.6301880	1.8544952
74.2743960	22.9877390
5.3916634	-41.5413670
58.7593040	16.0634270
83.7439350	18.1592440
69.7053920	-15.2665040
-1.3376872	-39.1826500
76.2808440	18.4781330
-2.3974915	22.5614140
70.5516100	7.7803073
36.2683180	36.7349560
46.9522300	27.1078210
42.0968160	-14.7045600
89.8549500	-39.2289100
65.6582180	29.9657230
66.5743710	41.8182120
69.0705540	42.7116910
70.0890550	-26.1447060
39.4609540	-40.5244240
76.8192040	-13.3486120
19.1588710	-25.2221030
79.7584750	38.4859030
13.9434610	-1.5332249
37.9734220	27.0824040
28.9841330	-39.4577910
-2.7230273	-43.4190330
10.0253490	-16.0213050
10.2915220	37.4424890
60.0092860	40.5889300
38.1841750	-45.4417090
33.0292880	8.5034953
-4.5278533	-20.5354920
45.8909020	-26.1952260
73.0181720	17.6820460
75.7845360	35.7305500
72.8679390	20.0080230
38.7988660	-12.1954160
70.2687200	-39.2032820
76.5323340	-45.6029020
27.4754150	-14.7123380
-7.9652408	-38.9630110
50.5475500	8.1601351
51.8574640	46.4167910
7.7841450	-8.2879888
74.1278480	-43.8406510
56.7692250	-15.0461030
75.5769910	44.0174250
4.0815208	46.2639250
-4.8985050	34.4705500
76.0223230	-28.1035960
34.5770590	-41.3244400
-6.8336484	3.4096486
37.6199780	-41.6015260
14.9976730	-39.2994240
46.2326810	-14.4730280
40.2313740	-31.1142730
48.2440410	44.8728890
67.6637860	-11.3372170
64.1949810	29.9035590
35.6902950	-44.1393580
-2.3451116	-16.2593630
44.6773830	0.6664501
15.8729360	-28.5710430
42.5016890	-12.9111720
22.8820740	15.1421840
-5.5964732	11.9312250
79.6042410	-14.9114720
38.6616890	38.4565040
3.3736226	-39.7315670
-5.1982186	-6.0393934
19.3558670	-31.1980710
39.4657910	46.5424550
49.7583190	2.3915693
8.0094717	29.2364190
-12.2466460	10.6952180
44.6633530	13.0742140
29.3108710	-4.2676932
-5.0865436	-30.0342500
59.7853580	-37.1234400
40.8534540	11.5665070
69.5095210	37.6112240
20.3544170	-9.7236671
33.0756400	-39.5498820
2.7028928	33.9839480
67.0941700	42.3566800
43.9952740	-33.0827250
60.3460050	28.8448530
6.4072906	-4.7081542
-5.6115665	-40.5918980
36.5939860	1.1581225
25.2423700	12.4169610
32.4780950	12.6328420
43.3440710	-17.2736860
51.6877530	8.2756087
39.0546690	-15.2392100
42.9073410	-46.6944970
-5.8775724	0.9442485
57.4696580	-10.6636290
22.8745920	-1.5137735
-6.7919782	4.3368181
24.4509460	6.0981859
75.3425890	21.0973930
42.0206350	26.9009390
9.6202728	-41.0338560
13.1527540	37.2960220
-7.7757887	38.5054490
-2.1477341	-19.1260160
52.4164240	-24.0428180
28.6194430	40.5235500
52.3328440	-30.8247020
40.3353820	-43.5403750
40.1876290	8.0625307
21.2614180	-20.3579830
42.1395950	23.7585670
47.6045190	22.3292530
-14.4513060	38.6192450
73.5986970	-26.0091050
30.6988610	46.9770440
39.5254880	46.2004180
-7.0490837	16.5391040
44.6792140	36.4858770
-4.7510748	-6.5465963
68.0945060	16.7815600
59.5371120	-8.8629140
18.9022440	-15.6690170
66.5045670	44.7991870
-17.0126130	-7.6776368
-7.5059204	-23.3942080
46.1912480	-23.2479090
6.1455703	6.5651105
7.3645515	-8.8932181
37.0994260	41.6418580
71.1139970	-8.0544356
69.8922850	26.0065780
39.7734750	-41.8691710
-1.2649638	-9.5724221
-12.9784300	-16.7547620
32.0919380	6.6168405
-10.3670380	-17.7776430
53.0282270	-43.8828840
41.9302160	-24.8728790
26.5469320	-37.2064830
-6.9599881	12.8809860
25.3840390	33.2194990
1.1526003	0.4599451
-1.2699611	-18.5557910
-3.4375127	24.6543320
30.4307900	4.3203525
32.8934240	45.1560310
59.9392450	-43.9089210
57.7909830	-40.3695520
52.3308530	-24.8391790
28.7730750	44.8494650
30.2443800	-18.4286020
16.5403610	7.1162420
68.1909730	4.0387893
-8.1155425	-25.2683770
20.9271490	-35.5709560
0.3965107	-41.6927170
54.2428010	25.7316990
50.9034700	-25.9708920
-2.4318110	24.1363520
13.5064760	-3.8536694
24.5029820	40.2467350
-1.4104439	-37.4414380
-3.7213436	-29.1347740
18.3673220	19.8728160
7.9431868	-26.9108270
30.8667890	-36.0105840
66.1774980	-39.7424020
23.4523190	-16.1549860
5.2558492	38.6826150
49.9686890	37.2230750
42.7344290	-45.7624240
9.9833191	34.4720700
11.7674420	-36.6282090
19.4874250	37.2835860
47.3614090	16.2110980
25.7675850	-2.3671180
38.3332420	28.5977570
50.2792200	-38.1593050
3.6922704	32.2120320
-0.1154799	1.6354143
32.3297210	-13.4752980
41.0040740	23.5790540
-7.6521454	-26.5803430
63.2351050	-43.0255970
24.6501220	-45.7121450
26.8502580	45.8760420
59.3260670	-36.5255960
22.1228550	-5.8169682
26.8623640	-45.0520660
49.7452820	-14.4655920
5.6138148	-17.2621360
2.6487793	0.7614645
38.7627010	-39.6243150
60.6234430	-23.8492020
-22.3863850	-3.4666396
55.5418420	21.1482990
18.4157850	-7.7345323
54.1726610	12.8549480
46.7042620	-43.9187480
17.8150360	8.2777122
-14.8547560	5.2155480
23.3533240	23.3711110
51.1479660	43.8966510
25.5921830	-46.7017880
-7.9786719	-41.5340820
-23.3859550	-4.9140682
-22.5656530	-36.8740610
-12.4008230	-28.6066240
21.8439530	18.9736860
13.4446910	-14.8488380
63.4641620	-31.3944080
14.0894590	-8.1890673
37.0940520	-8.0406933
23.4069310	-3.6927896
-23.0897170	-23.0466950
-30.2099840	-35.0324420
-29.7725260	-27.0299460
52.4166750	-11.5920890
3.1312502	36.4902080
-3.1861347	-35.5101760
-9.7404622	9.5079790
50.6367860	-15.2170720
-22.5656440	-13.2335020
-19.9361400	-14.7577040
-22.0193120	-30.9038030
24.7741070	42.2803130
-19.3892370	-27.4314590
-6.4441035	9.6679161
-17.6965080	0.4669731
54.9666040	25.5599760
17.8550920	-20.2779380
29.3546910	35.0366860
17.8975630	-13.2056430
43.7483890	-38.0763070
16.8414530	-14.7436520
16.1498520	6.0048766
-7.6336199	29.2575670
45.8764630	20.0274440
51.1817700	-39.4993570
-24.4960640	-45.6369420
22.9256120	46.8229370
-22.3076580	10.3784050
24.4959660	36.6172800
7.6010770	37.0321660
-20.0900610	37.0667440
-22.8856800	42.8660760
60.2810260	37.2466290
11.3802320	-25.7696770
43.6707000	-3.9029357
15.7042980	17.8691570
35.5196620	7.4990012
48.6937650	4.9177986
-8.4900452	-13.4234020
2.6970766	26.9470340
7.2224517	4.3054988
-29.2068690	-36.9059750
54.0743480	-26.3771480
-25.5320280	40.0004780
-7.8983377	-46.8149070
3.1912105	-36.5728720
48.1648280	20.2912230
36.6107040	26.6251450
3.8021338	9.6329763
9.0661721	-19.1332170
46.1907280	-39.7488750
-31.4138990	26.8820750
-28.2637970	-42.1670460
31.8229580	1.7672249
42.9108950	21.6534790
-33.9844920	45.4797570
24.4632600	-21.7212410
55.8620630	9.8245186
0.7697569	-39.6258130
10.4162480	15.8517200
29.6754120	-24.4427900
-9.5063745	-42.1215630
-7.5837789	-33.7214350
7.7178301	-5.8789310
-25.9763960	-10.3926800
36.1107530	22.7200960
35.2996690	-9.1975919
4.8822919	6.9580976
-3.7739871	4.0348929
54.4046900	-43.6215390
23.0701920	8.5767109
55.9244960	4.2702349
54.9935250	32.7280320
-2.5955743	9.9812990
21.5752460	45.2914180
38.0489780	-39.5529270
20.7844190	19.1771310
1.0995972	-38.2466760
-12.2525280	5.5892595
47.0878160	23.4059190
-2.4139586	36.2562770
1.1284965	-46.1143980
18.2112930	23.8808940
55.9932490	13.7405290
-3.5856146	21.7200970
44.5716650	10.5334930
53.1235720	1.3941510
24.6821120	-8.5623423
7.3426590	-43.0215280
19.3955950	-34.4312320
10.0570630	-0.2027556
47.1096710	5.5091657
-6.1393756	0.3945909
41.0247690	-7.2415044
4.8524437	36.7842140
-32.6835960	20.4526180
-35.6753000	-45.4696090
23.6436730	25.7622520
-7.6351773	6.8839131
-0.0766423	15.6544610
-11.9414440	28.9992470
42.5848070	-24.2906110
13.1845330	-40.1992960
16.6244120	8.4981075
-23.3958400	-4.5165221
-1.2529914	-44.5632810
5.0203983	-42.8569300
-20.9185690	17.3757720
-22.0838620	36.9107920
3.0467620	-42.0496460
24.4331230	16.2704560
21.8779690	22.1161390
9.6486776	-4.8484513
13.6155530	-28.4106020
56.5994510	4.8067901
14.2243080	-18.6106930
40.9811010	37.7610550
-6.8159436	33.9436620
0.6916711	-13.7096860
36.0254720	7.7716440
-22.3178200	-17.3596650
-14.1814460	-46.5965910
-19.3566780	-16.9464110
33.1636110	14.2294500
54.7725690	41.2320010
-15.5570620	45.7799310
1.4117611	-15.3582220
16.4793820	-13.8640290
46.1930420	11.9978470
-15.1856370	32.1205930
54.0612200	5.6538453
-1.8738347	37.5232110
49.7974230	29.7025890
31.2358290	27.9728330
-13.6682080	20.4089160
40.0397960	-43.3979090
27.6645590	-35.4714690
-29.3531050	22.4187220
53.7736800	16.2709350
-22.3946920	35.9271260
42.4291140	15.6157770
3.0357891	13.7562350
3.8824777	-37.4226410
21.0338940	39.4192560
14.0143470	-4.5818598
-16.0212090	-28.1468560
-1.7200101	8.2011653
-2.0145810	-10.9674960
47.6949130	45.8999940
3.3932784	16.0920860
-22.8498120	-0.3223194
-30.3511480	23.7643130
46.0415580	41.3538560
34.3473350	15.3274220
-1.6419638	-35.5687650
-34.1705440	-35.1028770
-3.0763416	-11.1562450
-38.7605930	-28.5727820
-36.6919700	5.1388568
18.1537070	44.2356550
8.7928279	-41.5896180
-7.1144058	-32.7309340
13.0306640	-41.3274250
42.3925040	46.9819120
15.0794650	-24.5800900
26.8396150	-3.2448010
-26.6974310	-37.9147340
44.9611620	-6.3763143
51.4917230	15.8057140
-35.7979800	36.4576570
12.9125760	-30.2059090
-32.6128520	43.5158980
-30.7833740	-45.0175300
-20.2666480	20.0474020
51.3888490	41.4428530
14.8491120	-0.8531405
9.4892194	-44.6271940
39.4706050	-21.0614740
23.4616270	45.4259560
-14.8238680	18.4254500
6.4981997	32.7391720
1.2126048	-29.6233690
25.1485160	18.8995260
43.7155910	10.0361990
33.8622260	-4.9627383
-21.4197790	-5.6693786
-15.9960340	22.2208570
41.8095890	-30.0581400
8.8100524	23.4414100
44.0670300	-33.9035110
-7.7825187	42.7433200
16.8906220	1.1485799
1.2488216	-20.7949740
-23.7630100	-30.0859960
-38.7413000	39.2932930
-23.5175080	-42.6435450
-4.1875227	-38.5403830
-9.3341707	44.4588910
42.2349250	3.4019557
0.7846184	21.4924640
-7.8712857	31.4593630
33.4491440	-35.5472420
37.6791700	14.9482240
-29.7074860	45.4534910
29.4474400	-19.4089920
-34.8213220	30.4412740
1.3242157	-1.6497805
13.8524430	13.8066080
11.3257880	-4.9906821
28.4952100	-24.5462740
51.4045210	38.7169900
-28.1001840	1.4845331
-2.9446795	8.1042628
-11.6346890	25.0115640
32.6947500	1.5607039
23.2288940	-38.6330690
42.9088490	30.3020590
35.3760640	34.6120800
5.7068575	44.8069910
32.3506490	24.6353260
-6.9637022	-32.3013680
48.3007130	-3.4468270
14.0261430	44.9515630
28.1950280	29.2603860
-19.8533470	-1.9531809
27.6206400	21.4338860
51.0948450	-16.8083430
-40.8375180	-8.6210176
15.7354610	-27.0157820
-6.7162932	31.5921510
-30.0180970	-10.3754110
29.4490610	18.0676440
14.6826350	40.7939850
40.6803400	-16.5381100
-10.7424950	32.3256940
41.3953820	-38.6101780
-10.1555150	37.9006250
-35.9034140	-22.3695810
-19.7126890	-43.4128650
-10.1984440	18.3577410
-16.6525430	35.9389100
5.7578495	-41.3978360
16.4179910	35.4488200
34.8036750	-1.5213146
-23.9807910	18.2417030
41.6900030	27.4331530
-4.8086993	13.9305110
18.5112970	-19.4989260
-31.0519970	-15.0288990
12.2110900	-19.5836860
39.5858220	14.0193580
-7.0358332	-26.2074230
9.7674246	-26.5038010
32.8780600	-10.3602070
-27.1134000	-1.2237757
-7.3846847	-36.0988330
-4.2632958	-35.3691930
50.6651480	-12.8313570
-32.8618020	32.4230970
-23.5855090	-36.3763700
13.2794190	-39.6778930
-31.1737390	-4.4457303
34.8207660	2.9594537
-33.4226130	-26.0762600
-4.8586528	-42.3027440
5.0997224	-19.8799300
-35.9886960	-8.1462463
-27.6352160	-18.7732820
-5.3245897	-42.7137220
-30.9480070	32.0861030
46.6355800	40.3798120
42.5281240	15.8325550
43.1225140	30.1273000
-12.8794430	-20.0348400
39.5226540	-9.2165759
23.7903560	-33.6553080
23.3865290	7.5929798
28.7825100	-33.9409890
38.6617360	-6.8024504
-27.9346300	34.9446280
50.1927880	22.5041620
-12.2326030	-42.1441490
41.5353910	-27.5586260
32.0175710	-44.4019850
32.0011080	-12.9164760
13.9485880	26.0318150
30.2936950	32.8201060
-9.6366780	-4.5774919
-30.5880210	43.3670160
40.8851910	-24.4774840
-33.0285420	8.7012619
-8.7329672	-39.5337690
15.7158330	-12.7267510
-41.4761660	-33.5172240
39.0018980	-22.7783160
-29.0804050	1.4378260
22.3242770	23.1457730
6.5408853	-5.2280656
40.8089100	19.3803740
-32.9850420	-38.7263750
-42.4130350	42.2621920
-40.5349500	-28.1811280
-35.9852760	30.0508030
3.4554984	7.9776722
28.3335660	-29.5619300
50.6419540	30.9971750
9.7230810	-24.7764290
-0.8940902	-19.2764580
49.7743020	1.2321764
30.9298430	-39.9919490
-11.4462500	19.2835990
42.3584430	14.4043900
3.8791153	-46.8409920
48.3095780	-10.9660020
33.7752710	-12.3038080
-11.5961590	-2.9246205
9.8071298	-0.0748153
49.8592610	-2.5669601
-23.2715600	-2.4601429
35.3421370	-3.3962468
50.3267780	40.8725530
19.4683140	-13.1449130
3.5833842	39.1152670
15.5622360	21.4398940
-25.0494200	-4.9372701
-15.2518570	13.3328040
35.8883340	4.6455812
-39.7097910	14.8889300
-18.9632910	-9.5632072
-9.1444449	-26.6929350
34.6735320	25.3598150
-31.3150320	22.0798250
-43.1079180	11.4738440
2.8084767	8.1607481
-20.0394490	-10.4965880
-11.9073580	-43.3144110
-24.1272330	41.3442400
-29.2129160	32.0141950
6.5476543	46.0069080
42.2553400	-21.9559440
-15.4834680	-38.6563260
4.2851683	12.8283690
-38.8202350	-14.0337890
-31.6087300	-15.4675340
32.9687390	37.5517520
39.1099410	-19.3123790
28.0495810	-1.9473061
0.2913207	-17.8004430
