jMRUI Data Textfile

Filename: dataset27_nWS.txt

PointsInDataset: 2048      
DatasetsInFile: 1         
SamplingInterval: 2.5E-1    
ZeroOrderPhase: 0E0       
BeginTime: 0E0       
TransmitterFrequency: 1.2322E8  
MagneticField: 2.9E0     
TypeOfNucleus: 0E0       
NameOfPatient: dataset27_nWS
DateOfExperiment: 
Spectrometer: 
AdditionalInfo: dataset27_nWS
SignalNames: dataset27_nWS.txt;


Signal and FFT
sig(real)	sig(imag)	fft(real)	fft(imag)
Signal 1 out of 1 in file
48943.3800000	-98.7529950
48904.6160000	-179.8751800
48491.1550000	-283.3323300
48076.4290000	-293.5636200
47741.3380000	-241.1907900
47432.0790000	-167.7976400
47142.7040000	-36.7745200
47056.3500000	32.2558180
46929.7930000	106.9291000
46760.7990000	128.9647900
46609.1090000	17.3179790
46401.0310000	-63.5342450
46095.4270000	-84.9720620
45805.1430000	-140.2394800
45547.4880000	-96.6011820
45326.5110000	-32.7466660
45136.9380000	51.9993750
44957.0100000	80.0081880
44778.7500000	47.3553140
44607.5620000	2.2353219
44396.7210000	24.3294710
44135.3850000	-21.1709730
43900.0730000	-34.9015980
43689.6690000	39.6736920
43417.9040000	49.0804320
43264.1810000	73.5205390
43135.6290000	72.2960950
43000.4340000	95.9608440
42811.9290000	35.2200820
42586.1290000	-9.1343948
42337.0360000	-69.2287010
42092.7990000	-135.2801100
41862.1670000	-110.9960300
41658.6020000	-4.2994359
41447.3940000	22.2500020
41252.2020000	30.2047760
41131.5800000	135.9832300
40953.5200000	74.3309920
40777.9990000	116.3129600
40678.3420000	30.3556800
40492.5920000	25.4282890
40261.5700000	-59.0291180
40025.5970000	-83.3720240
39834.3100000	-48.9259040
39576.8760000	-24.0504860
39427.7870000	4.2179918
39236.4410000	51.3301770
39067.7630000	45.4355520
38904.0780000	-3.6681165
38696.4570000	-6.8091620
38571.7570000	-67.4216930
38389.5900000	-46.7203040
38094.0410000	-77.9143140
37940.5150000	-51.6326570
37682.8840000	-11.4662100
37573.1210000	55.4792140
37413.5370000	39.0249270
37242.5970000	57.0858260
37105.1120000	64.2519140
36999.6310000	60.0235860
36828.7930000	-11.7999600
36599.6570000	-57.1033120
36417.2250000	-78.9939970
36207.9260000	-42.0631520
35992.7120000	-1.2704420
35866.0360000	-25.4724850
35737.3940000	20.6489310
35527.1700000	67.9116140
35381.0980000	27.6023080
35251.0210000	-35.8884920
35108.6210000	-50.0925800
34876.3310000	-32.1516510
34708.0310000	-24.6374630
34527.9220000	-48.2404240
34389.0810000	-9.2639269
34177.2100000	14.3862980
34052.7400000	12.4866060
33949.9480000	8.9271639
33763.7090000	-8.4684895
33570.8970000	-19.4481750
33442.3220000	-39.9289860
33246.4720000	-46.1521120
33088.4350000	11.1134980
32877.7500000	58.0070330
32736.5830000	48.6216860
32646.8250000	87.8808410
32570.5060000	38.7180460
32379.6050000	30.2926260
32286.9830000	-31.3350170
32131.2150000	-46.7351430
31932.3820000	-78.4936050
31773.5710000	-55.2788380
31536.8860000	-45.1913560
31435.6020000	8.7515672
31258.1000000	-28.1253140
31164.0670000	29.5999650
31018.3850000	6.8420212
30846.7150000	-27.0759890
30716.1400000	34.9349660
30614.0720000	1.7114530
30407.7230000	-15.7694110
30296.6490000	-67.0762080
30103.5480000	-40.5684340
30011.8260000	-12.3514320
29800.8690000	20.0276480
29659.6250000	-11.3234940
29568.7380000	7.2396432
29466.3430000	20.7256820
29341.6900000	-13.3793420
29124.1710000	25.8238050
28978.3630000	2.7491729
28898.2480000	-29.2096010
28776.7270000	45.3165740
28617.1510000	-8.7513362
28488.9350000	25.2257800
28377.3560000	-17.3226930
28261.0940000	0.2851879
28105.3320000	-15.8014150
27997.0270000	-38.7888230
27845.0020000	-17.5338080
27674.4630000	-3.8802560
27546.4750000	-4.8041491
27386.5700000	-23.5483460
27263.1870000	-14.9465640
27116.8940000	7.3524476
27020.5390000	-7.8793977
26934.4580000	5.2589887
26815.8800000	19.4970040
26695.6360000	29.3917440
26542.3400000	-28.6806370
26436.4890000	16.2157410
26318.9970000	43.5468440
26169.7400000	-24.7243040
26074.1790000	18.0227110
25899.9300000	25.4709360
25830.0930000	43.5297030
25692.4420000	51.2963630
25555.6480000	-6.0053462
25495.9190000	-7.9538109
25332.0040000	-60.0275350
25193.7100000	-30.6999050
25059.5100000	-3.8710804
24960.6030000	-11.2401800
24833.1510000	-49.1669710
24718.5920000	3.3617143
24562.6400000	30.0043540
24492.3670000	-11.0922150
24342.8860000	8.2976516
24275.7780000	-25.7281880
24137.9530000	-22.3928860
24047.8640000	-9.4780539
23913.2560000	-26.8060090
23828.5440000	30.1599460
23702.1260000	12.9928330
23579.6220000	4.3221586
23525.4550000	-11.7912750
23418.5140000	-4.9089229
23235.1380000	-0.0922214
23199.2060000	30.4028350
23062.6260000	-19.8902560
22948.6150000	-27.7391050
22813.7010000	-33.2966020
22689.1080000	33.4081130
22634.3340000	-1.0862669
22467.7970000	-24.3246900
22384.1610000	32.4920980
22324.2400000	26.1441410
22202.0790000	-35.0345100
22093.0470000	12.2201940
21974.1670000	30.1858220
21857.0980000	44.9875500
21790.0330000	-21.5697030
21644.1320000	40.4192860
21603.7230000	64.9689790
21461.5420000	7.0904593
21395.9300000	-17.2115250
21286.5450000	17.1016680
21161.8490000	-1.0386814
21053.9940000	-22.9453730
21016.7160000	-43.1717690
20883.8010000	12.3134960
20808.3730000	15.4356340
20679.8450000	-11.5571890
20620.1810000	20.9558180
20492.7610000	-41.4389800
20415.9540000	-30.4932450
20297.1740000	-26.0536540
20203.3270000	-49.2264160
20055.1930000	-41.1960650
20031.4380000	-16.2958780
19933.8960000	21.1529040
19792.8310000	-0.2758769
19704.9250000	-6.1672346
19631.8650000	30.3739400
19549.4280000	5.1542786
19452.1020000	61.2051990
19353.0070000	6.8274101
19245.4050000	44.8694320
19184.5360000	35.5633600
19084.9020000	-26.7493870
19005.5730000	14.3995650
18895.7260000	-35.5667760
18854.1010000	12.3512110
18690.5780000	-24.1439520
18674.0140000	9.7843543
18589.1530000	-37.1161450
18503.2340000	-25.6578020
18358.2430000	-11.9898930
18300.2750000	-34.4234410
18216.0510000	20.6240360
18128.3230000	-3.7371231
18006.5120000	-24.1554000
17934.9270000	30.8272520
17818.0180000	16.2418430
17785.3860000	29.6043870
17685.5840000	24.3833890
17592.5180000	5.6184552
17544.3790000	56.6099170
17473.0170000	59.4788080
17399.0060000	-20.1754610
17310.3850000	-26.3668950
17257.2300000	39.2061920
17125.6430000	-18.4247830
17027.6210000	-41.7701200
16998.6960000	1.8174545
16871.7450000	26.2202100
16828.8670000	19.5492080
16752.3550000	11.3080610
16619.3130000	5.3936012
16599.0790000	11.7988220
16493.4190000	-52.9010680
16376.0970000	-44.5816540
16311.5210000	-9.9998161
16263.5730000	-44.4800120
16133.9450000	-12.6390970
16061.2380000	8.6111739
15993.2240000	23.6187470
15985.4460000	43.5197010
15841.0620000	11.5831140
15836.4320000	18.9257760
15692.6260000	-8.4205481
15623.3170000	-21.1355630
15573.4100000	-34.5818910
15510.8350000	26.3587350
15394.8500000	0.9526815
15367.3750000	-5.5060034
15312.1850000	42.3514120
15199.4840000	48.6795780
15152.5320000	-35.4760070
15061.8190000	-20.8874460
15000.4230000	-37.2456170
14892.8160000	8.4793622
14881.2380000	13.3724510
14806.9830000	-28.1168360
14674.5030000	17.7059550
14642.3740000	-28.6218310
14551.1980000	-13.8484940
14501.7610000	-19.4293620
14497.2180000	45.1549860
14413.4000000	-30.3567080
14293.9280000	13.0367670
14276.7790000	-2.2706670
14197.5100000	26.1031990
14065.9470000	17.9853510
14012.1750000	-21.8363810
14004.1430000	54.8638250
13906.1320000	-26.2558360
13899.2140000	-15.2788300
13807.6530000	19.0811770
13777.7670000	24.7881650
13644.1530000	-22.0290400
13625.2400000	-12.6322240
13518.0150000	-1.5720942
13429.4160000	-44.3629160
13437.4470000	6.7937054
13321.9470000	-29.4889490
13269.6760000	-16.9747130
13219.8780000	-29.2107580
13197.0530000	2.2061753
13069.8670000	-46.6896450
13021.7310000	-5.9371846
12985.5410000	-22.5193760
12920.2960000	-21.3085310
12824.8330000	-20.7314120
12731.9760000	-34.9612140
12727.0830000	-11.1194770
12678.7630000	6.7101093
12582.7240000	-26.9139450
12539.9910000	44.0906230
12526.3270000	41.7072830
12467.3350000	-23.2341590
12324.4250000	-3.8177466
12292.6580000	5.5731488
12242.7500000	-7.4375840
12170.7400000	4.2712982
12131.1460000	-11.2077080
12055.5320000	32.2775870
12000.9490000	-2.8904031
11977.9320000	7.7076558
11892.0760000	-10.3313560
11879.7860000	-32.5745630
11787.5380000	-9.0186454
11763.9830000	-23.4630460
11707.1370000	0.4121274
11657.4990000	4.2067290
11551.7060000	-10.8233970
11481.6870000	47.9753240
11494.0520000	35.3196260
11396.3830000	-20.0628250
11342.9120000	-3.7459641
11345.2960000	24.9565510
11250.9370000	-21.9704570
11195.0580000	1.7157450
11171.2040000	-21.8853030
11100.5590000	44.1429200
11074.7780000	-4.0011850
11005.5100000	31.3157920
10927.0950000	36.4393400
10869.9440000	35.8936780
10826.6100000	-15.9856090
10834.2780000	-46.8995700
10722.6820000	9.4918096
10716.4300000	26.5898520
10621.7250000	-45.6965930
10558.3210000	14.5589810
10529.1600000	38.1026540
10510.2090000	-43.8543990
10403.8860000	-44.0686370
10429.5310000	-16.7120750
10342.2770000	25.9645570
10243.8460000	21.9482800
10191.4180000	13.7517850
10165.0570000	-10.3374540
10108.0960000	19.1389320
10082.5550000	-6.0766261
10099.2460000	9.8978566
10021.5340000	47.3357060
9936.0852000	-24.1210950
9896.0560000	-13.2691580
9875.4229000	25.0665580
9861.0984000	14.0226040
9751.8452000	7.1433689
9766.8202000	19.5964980
9713.9671000	28.3769550
9650.5678000	-0.8080854
9586.4680000	-33.6056360
9565.2066000	19.5310090
9519.9054000	23.9606980
9437.1869000	-22.1844780
9420.7473000	30.0873950
9392.1449000	-25.3940280
9292.4602000	18.8261750
9299.7357000	38.3693460
9210.8032000	51.2891650
9240.5797000	44.1347850
9151.0747000	7.0523455
9100.0352000	-46.8032740
9041.4235000	31.8830590
9041.9420000	2.1741114
8959.9420000	-5.7984898
8938.4299000	-24.8951550
8876.2417000	11.6615470
8865.5754000	-19.6000100
8829.3636000	6.0536980
8755.2492000	11.9179330
8755.8387000	33.2823830
8736.3809000	-18.6768230
8684.9315000	-29.1079310
8589.6013000	-21.6555000
8547.8369000	1.6831280
8507.4955000	-22.2732420
8439.0722000	20.8514150
8401.4788000	-22.7869090
8401.6462000	34.2822080
8327.7092000	-5.0521907
8291.8578000	-28.6647220
8256.2742000	1.5995975
8242.2848000	4.8405612
8187.7222000	-13.6175200
8167.4553000	50.5890510
8139.3837000	15.4020270
8117.1971000	25.6700930
8115.0861000	25.7317530
8011.4657000	16.9209590
7977.7824000	24.2041910
7965.2918000	-48.9193790
7891.2523000	-50.1954760
7887.5719000	-47.2719320
7850.7808000	-33.4907180
7813.6451000	0.5449201
7787.3844000	42.9930290
7676.2972000	-15.3172970
7677.4571000	-21.6624920
7632.8340000	-7.7422290
7650.2996000	14.5866120
7572.7035000	-18.3527510
7583.1609000	1.4652303
7477.4504000	11.7222870
7471.7592000	-27.3793520
7418.5306000	-14.0590880
7433.6099000	-6.5056181
7369.3233000	-12.4227120
7322.7751000	41.2727980
7344.4494000	33.9534730
7286.4882000	-28.9344540
7200.9990000	-30.5754700
7165.3125000	-11.6395780
7189.5033000	-43.0318620
7105.0431000	-9.2615056
7089.0004000	36.3257910
7014.3533000	-19.5902360
7049.6890000	34.7537270
6962.6202000	22.1346300
6940.2343000	16.6633050
6920.6220000	32.8268150
6885.0607000	30.1613500
6852.9275000	-49.8449760
6847.9963000	-51.0736340
6751.3191000	-22.1885070
6741.1710000	-2.0748439
6691.3102000	1.7078987
6734.9788000	47.8434390
6695.8419000	33.6910280
6674.3499000	-10.3004400
6657.6034000	-17.5473110
6616.9304000	-32.4840320
6507.8589000	-13.0512510
6507.5390000	-37.4934310
6479.8974000	-18.5712460
6421.8149000	-31.6421000
6430.2327000	-11.5657300
6406.2926000	4.7234142
6357.3853000	-23.7073010
6345.6329000	30.5725410
6339.5494000	-19.0620400
6316.4892000	-34.4049580
6254.0777000	-45.7822860
6227.2042000	0.0482435
6198.9217000	27.3820870
6178.0711000	23.9949560
6157.6337000	47.8743170
6136.6992000	17.0385560
6092.3462000	3.3344886
6031.1106000	-27.3634020
6024.4827000	-10.8547220
5973.9654000	-0.7141981
5961.9729000	-28.5249790
5940.2387000	-42.6595260
5929.4498000	-24.3207510
5887.9291000	-35.0587970
5816.4691000	-20.8809920
5865.9587000	2.0671066
5816.2560000	38.0630570
5782.8423000	8.7967254
5740.6473000	-3.6529912
5707.2595000	-36.8664340
5676.3757000	-4.2756405
5637.7491000	20.9518480
5621.0837000	-49.8751780
5605.1851000	37.4946450
5575.9705000	24.5539560
5585.6808000	25.3885050
5491.9253000	-34.5125960
5479.7653000	-38.8549110
5434.2156000	-6.2521732
5475.8494000	36.6530220
5434.0613000	-27.3024300
5352.6499000	-19.1054720
5382.3208000	-31.8359220
5339.4286000	-4.2165655
5317.8652000	16.7787810
5309.5310000	50.8351450
5284.2450000	44.1085260
5276.9104000	17.7653740
5230.4862000	-28.7168640
5181.8409000	-5.4140933
5164.7069000	-31.8668210
5117.8596000	0.0129623
5141.0877000	-19.6347410
5130.9323000	44.8030580
5066.3198000	19.5799160
5050.3705000	22.0327340
5027.4102000	-14.7696140
4994.5308000	-43.0035720
5014.9021000	28.9041170
4915.7312000	-34.7267870
4884.7065000	-26.6470620
4916.1598000	-20.1619460
4849.4596000	-20.6395340
4868.8949000	-19.3128610
4824.5776000	7.3564197
4782.6234000	51.6985080
4837.2989000	-15.1777130
4811.2476000	41.0131380
4739.5642000	-28.3234950
4701.7316000	-13.1923690
4686.2558000	-14.6368170
4660.4514000	18.2121860
4661.8663000	-25.2898810
4625.0342000	-20.8449150
4608.8102000	-21.9203240
4581.3359000	2.3413565
4601.6677000	34.0048500
4545.9525000	32.2150930
4503.5689000	-13.4097410
4540.5141000	-6.2301988
4457.4393000	-30.3927460
4507.2602000	-23.1590580
4455.6686000	18.5106680
4457.5736000	-25.0960670
4442.7787000	29.3624320
4429.1331000	10.4299070
4406.6221000	32.8740210
4307.5688000	-14.9218710
4299.2528000	-31.5791430
4269.3415000	-40.8653210
4314.0894000	35.9314540
4288.1414000	16.4956920
4258.7495000	-5.6010945
4250.9294000	12.7814640
4210.6133000	-22.5834280
4174.7275000	24.6309930
4185.1122000	-46.2073750
4154.3717000	-19.5902760
4115.1345000	-38.9643920
4078.8655000	-42.8961730
4092.3030000	-1.0282361
4033.3082000	13.6328690
4060.5539000	1.1181456
4004.8669000	-13.8989280
3991.7274000	-13.2618940
4001.6086000	44.0506320
3943.2096000	29.0827940
3973.6375000	14.4971940
3954.9581000	-33.0599680
3941.8453000	-0.3358753
3924.5700000	-14.9422470
3912.6041000	-16.0759160
3885.0167000	31.6075880
3878.0687000	-1.8727250
3850.5438000	21.8135810
3822.9319000	3.4289243
3783.5858000	16.3415410
3757.0223000	37.1138760
3779.0236000	-15.0299530
3706.9699000	13.4030360
3691.4043000	-44.4522980
3715.3700000	-32.1626410
3703.3374000	-19.2992450
3679.0473000	-12.3881270
3615.8122000	16.0035980
3591.3039000	13.1164600
3630.4246000	-11.0928640
3628.1545000	13.8068940
3547.4691000	26.0525050
3581.3360000	-0.6954501
3504.1486000	12.3274390
3522.2398000	-19.1750090
3492.2707000	-10.0862900
3513.5050000	5.0052062
3484.5484000	-21.9548550
3495.5815000	-7.7548537
3462.5964000	30.2795200
3460.3785000	-16.7409310
3434.2550000	-23.1777230
3426.9242000	10.6860770
3400.9066000	19.0026230
3386.9084000	32.5973970
3368.0652000	14.3122070
3326.2921000	13.0730480
3319.9366000	28.4542480
3264.8796000	23.7624570
3325.6263000	-32.5636680
3234.6799000	41.4385600
3291.7926000	-29.0262610
3267.8094000	-31.3565130
3228.7514000	37.4399780
3257.4932000	-0.5201301
3209.2038000	6.8973764
3220.1534000	5.1489100
3135.5151000	-9.0121687
3136.6295000	-46.8101490
3130.0951000	-3.4631256
3149.6282000	1.3692084
3108.9636000	29.9515330
3115.7522000	36.9360690
3055.3731000	-39.2968920
3047.8090000	19.1217960
3067.6118000	19.9559910
3082.4287000	31.4199420
3066.7024000	11.3804060
3047.1807000	10.2422660
2953.2961000	19.2060920
2989.2384000	-3.6711604
2958.8009000	1.6112629
2951.8936000	-4.3085579
2906.4865000	33.8625370
2935.6973000	16.6459600
2878.5450000	-22.9235960
2905.0127000	37.1274150
2906.1237000	17.4313710
2830.8909000	-2.6797787
2851.5786000	27.4535450
2863.9057000	11.9631120
2855.5746000	31.0661610
2846.6160000	-2.7407672
2768.4955000	19.8462140
2834.2549000	6.1660760
2791.8610000	-20.9864410
2766.7111000	1.5664739
2760.8854000	33.2597840
2721.9182000	22.3838250
2715.8178000	8.8510162
2717.5708000	4.0877840
2722.8060000	4.7145861
2672.2120000	13.8201580
2657.3487000	8.1806595
2707.9383000	-2.7606588
2611.9846000	12.7942020
2647.7202000	34.2297100
2595.0917000	5.6588154
2574.6735000	13.0271930
2557.3880000	-15.4486970
2562.5213000	26.8433870
2555.2318000	-38.5551770
2557.5330000	17.2406370
2534.6294000	-35.8929720
2518.3199000	-27.5426790
2572.1118000	12.5595710
2495.6814000	9.2750372
2489.7056000	28.6419150
2524.3146000	-33.2516310
2444.7121000	11.6309390
2487.4208000	9.3247596
2488.4902000	27.4218130
2474.8204000	-38.2289790
2457.4908000	-29.8394320
2417.8677000	33.3089090
2433.5276000	-9.3421121
2376.1474000	5.3719124
2350.5225000	32.2962200
2403.9353000	-6.0190725
2388.4076000	-37.2437310
2338.1288000	-7.7989907
2323.7294000	-23.0059330
2289.5792000	35.2630330
2316.3743000	-21.0427400
2322.0690000	17.6871550
2290.5601000	-16.5604450
2251.4656000	43.6672360
2276.9193000	-0.6840747
2278.8710000	-19.6459250
2253.1495000	42.5245260
2259.7724000	-19.6034060
2208.6738000	30.1946890
2198.2610000	19.2638870
2249.5014000	40.7824820
2212.5219000	20.5173760
2154.7048000	-25.3455740
2205.9782000	-44.1825090
2173.1717000	27.0510660
2155.4028000	-18.6625880
2138.9778000	-37.1677220
2118.0644000	-2.3030582
2107.0780000	25.3123670
2127.9984000	-32.5415320
2125.8544000	-27.1819200
2141.8544000	4.5649910
2132.7427000	-3.3540524
2058.2913000	27.4329290
2060.0110000	-22.7313510
2102.5800000	31.0232680
2057.7583000	-15.3173200
2065.8567000	34.2216270
2036.5180000	-3.5200893
2036.0677000	18.9815440
1985.0627000	30.5057800
2035.1847000	34.7498230
2032.3857000	36.1411740
1957.9164000	-22.4549200
1970.5424000	24.5744170
1994.5785000	-32.0184740
1941.5560000	-15.3699690
1969.9167000	-42.6729560
1932.6494000	36.9725560
1920.3509000	16.8512740
1924.4939000	-1.6940758
1899.3442000	-26.2825660
1869.9554000	20.7536740
1921.1630000	-40.8629180
1857.4303000	3.1090446
1902.0109000	-12.4477550
1863.1236000	37.5452160
1823.9139000	-36.2671790
1855.7047000	11.1359790
1882.1887000	-10.3356400
1829.6813000	16.2551910
1858.2556000	21.9829630
1804.0681000	-35.0325420
1828.4006000	34.3738590
1780.7382000	40.5795900
1823.3005000	9.8133810
1776.7007000	-33.7913440
1780.8393000	-9.3368040
1752.7278000	36.1404630
1779.1658000	-19.7294570
1724.4681000	9.4489221
1744.5609000	33.3192430
1698.2405000	37.3571730
1727.0873000	6.2088241
1755.5277000	-5.4930136
1706.6422000	8.5515461
1663.7392000	31.8770200
1721.9933000	-35.2916380
1686.8018000	33.6670780
1705.6142000	-39.6280900
1669.4289000	-23.0774540
1670.5568000	-9.2126133
1645.8073000	-14.9653590
1613.5729000	-34.7996410
1612.3381000	-35.8107720
1653.2439000	-0.4137024
1607.9707000	-20.0721140
1648.1469000	-36.8965200
1630.6113000	-16.3605490
1589.8847000	-11.8122560
1599.3346000	-43.1490510
1555.9798000	-20.3889050
1549.5780000	-33.0973830
1557.3562000	-21.0760600
1531.7262000	-11.7785080
1530.7178000	42.1978070
1570.5550000	21.6496590
1512.2982000	14.0231040
1570.7170000	43.2973660
1561.7753000	-12.8030240
1558.7910000	-8.2151746
1482.8174000	-2.1064315
1507.2383000	22.4625370
1458.8778000	-22.4767660
1526.5834000	-7.5010915
1521.1124000	-36.2822070
1517.0020000	34.0838290
1441.2507000	-23.3728320
1455.2054000	-17.6647440
1440.3193000	14.0516390
1487.2196000	14.9621130
1409.3974000	14.0949490
1399.5924000	39.1396150
1467.6784000	-12.0047200
1413.2996000	29.9481990
1400.2119000	34.2976480
1369.4752000	-14.0723890
1420.1131000	-14.4334980
1397.6166000	37.6060200
1402.7382000	39.7431050
1387.5350000	31.4655390
1372.9962000	18.5262580
1341.2123000	36.1840680
1341.5419000	-33.7522360
1328.2255000	-27.0598840
1372.9019000	6.1457288
1363.4522000	23.6073820
1301.5385000	20.8463420
1310.3321000	-31.8055940
1300.3684000	-36.8295730
1303.4668000	35.6070870
1309.1580000	-31.0209110
1302.0253000	10.9723890
1323.3279000	-2.6525064
1318.1781000	-2.8929380
1310.2497000	-10.1546420
1291.1453000	-33.0528070
1285.5572000	21.7418650
1236.2869000	-33.8817070
1237.5582000	-13.2555060
1222.3750000	27.1221140
1253.0966000	39.8799420
1281.1700000	0.6168299
1214.2284000	-22.5322270
1196.3531000	-28.3286690
1219.4176000	-35.0742110
1262.5262000	42.9137760
1255.5096000	-32.4297430
1195.0079000	16.7736460
1178.7718000	8.5345537
1235.2117000	-39.1015400
1185.8856000	29.1303540
1196.7145000	18.4124310
1171.0697000	23.0174940
1136.2786000	11.2814070
1132.3185000	-19.0584640
1209.2826000	34.6149750
1124.0181000	21.8708840
1195.0587000	12.7348670
1123.2285000	-8.0974881
1126.0546000	-18.2196930
1114.8598000	-12.5835220
1117.2498000	-21.7046540
1119.9843000	-38.4183870
1099.8231000	-6.1070425
1102.9195000	20.5515260
1069.8641000	33.4469630
1076.9191000	-17.3615420
1138.3157000	34.2866390
1116.1183000	20.1852350
1052.5438000	-26.8185600
1102.6466000	-38.5636580
1104.3599000	32.4380670
1116.3746000	-42.1238740
1071.1235000	17.4436080
1054.1705000	-15.7740680
1074.9957000	-12.7463430
1075.2984000	2.3795969
1064.7072000	22.1538650
1037.1905000	29.4147070
1003.8484000	30.5402080
1002.6834000	-0.4652000
993.4891900	-29.2825300
1015.2200000	-5.9827307
1043.4213000	-42.2529280
1057.3439000	-25.3623030
1038.9759000	-13.9527460
1025.4081000	27.4321690
980.8264100	-15.6152800
969.1983800	35.8152930
1021.6016000	21.6477390
981.6981900	-37.5555170
1007.2638000	22.4262590
1021.3285000	-1.7510141
974.9834100	-16.8350330
975.9214900	6.0242208
994.3033100	-25.6395410
956.9465700	21.4309110
969.1125700	-33.9222930
959.2856900	-6.8251681
967.3812900	-16.3475880
968.5714600	39.4902680
904.0853700	13.4030330
919.0329200	6.0164123
929.3955000	15.5628830
949.7193200	-5.0085987
906.4247200	-29.3110980
907.5415500	-31.8740400
913.5562700	-5.2352686
910.8162900	-25.2753630
868.0654400	21.2531340
885.4299300	-9.7849433
887.5306600	-24.1277200
861.3711600	3.0751216
874.6615900	-2.9179511
922.1405000	-31.5413210
873.3619500	13.0296630
831.7051700	31.7223220
883.3313100	-23.8731230
909.7324600	13.0272090
851.6567200	16.0148100
842.3832800	5.8356852
858.5159800	6.4151725
814.0007100	-43.3298200
884.5587700	40.7512590
883.8788600	-22.2078230
846.3729200	13.4321550
873.2213000	9.6518651
803.4586900	-6.5581814
833.9178700	34.7746580
823.9711400	-36.2462810
810.9720300	35.0060120
838.9976200	-9.9602148
774.3317100	34.3373310
815.2912100	-30.0441400
800.1092100	-9.1740157
800.1265200	-12.6062500
837.6172200	-17.3378320
777.9443600	-6.6101901
832.5514900	-18.6324170
807.8303600	8.0620227
755.5626600	33.3983390
770.9038600	-25.4018390
812.7573800	1.7767592
796.1103600	26.6971150
759.7785600	-2.6945031
783.6168300	-37.2910690
795.2805300	-36.3275560
778.6896800	21.4029900
716.4417900	-33.0324880
723.8014000	27.8945670
725.6246100	14.3432340
747.7498300	-15.7585090
742.0057100	-38.1095190
737.2926000	10.7475980
759.6267400	-21.2282940
708.5525900	5.3852433
718.9032800	25.3453910
752.5374300	-30.6656370
690.0890900	17.1885750
688.5152000	-14.3662570
687.1018600	40.8679710
698.3327400	-18.4019010
730.6231800	2.2498693
705.0013200	-25.5626700
715.4215500	31.6839830
661.8180500	35.5628110
719.9575000	13.4084110
676.1702600	-1.7619003
649.4840700	14.2630330
692.8581700	-4.1603828
659.4723100	-43.9589120
714.9839500	28.4525890
683.7173900	1.2950392
667.0368100	35.8899830
675.4731600	32.1330390
619.9378100	12.3278680
655.5001500	-29.8853980
673.5198100	25.0210890
643.1263000	39.3166590
689.8247000	-9.7988923
679.2180200	-19.2838380
607.7626900	14.0209210
660.4165600	5.5014321
639.8870900	16.6567390
646.0849900	-36.9885790
610.1943900	-17.2181600
649.5512900	-32.8833910
616.2726500	16.4885340
600.0545000	-15.7345150
642.5228300	-21.9680670
607.5672900	-28.6400000
598.5522300	-19.9352970
582.8406100	-27.3008940
627.0937700	-36.1365190
584.7144800	-12.7421970
618.6912800	0.7799684
596.7513600	-16.6831080
627.8597600	12.2722080
606.8563200	10.4824300
626.8918200	-17.7602430
566.0070800	29.8879720
589.2246300	-9.2559815
569.7919900	39.3739880
615.0770400	21.1100430
600.8418300	-17.6571910
607.3801500	-10.2546750
555.9241700	-11.0905230
555.6252900	-29.2797760
593.4546200	3.0218261
535.1123800	11.1909890
604.6240700	1.4693272
522.1819000	33.5150510
552.0493300	28.4038830
525.9592900	-42.5497470
582.9562900	-2.4488045
567.3449400	-13.3066380
544.1145700	-16.5492310
558.8484300	-26.8406230
555.5613500	-12.4335040
569.8962800	32.4004010
574.8237100	-28.1776280
572.1282500	-14.3257010
553.3356000	-18.3375650
539.9893400	-16.5219080
507.4651300	-9.9952801
515.2156500	-23.9072110
501.2273200	-20.0007260
539.3226700	-17.8411480
528.5476700	-9.4765753
550.3707400	-9.9498146
480.5497200	-36.3094210
533.0127100	41.3959980
547.1204200	39.8577780
488.3812300	20.1109760
477.0930700	-13.6774460
471.8529300	-24.1655770
502.8384000	24.1993880
462.1203600	14.6651890
482.0620300	15.0720410
467.3481600	22.4034350
509.3857800	-29.8934550
458.2149700	0.4489912
491.7008100	4.8832982
476.9384200	25.4150440
479.0069100	21.6653620
489.3696500	-36.8131200
450.1398000	35.0261530
446.7844300	25.1272480
511.6944100	8.5821842
445.9997900	25.1236970
498.6450000	-31.2041490
456.3576500	1.4979048
486.6665600	23.3955600
470.3124000	-6.0975737
486.4331000	15.2422410
438.8989400	-30.5577040
422.7456900	0.1088494
452.1608300	8.1299414
445.8316100	-3.2597465
415.9848800	-21.1947420
471.5479100	-40.4291510
470.4102600	-18.4630100
472.1098100	-14.0573670
443.5082000	2.1204519
436.1269100	-6.4182314
456.6904500	-1.3695034
465.7328200	33.8796710
455.9632300	35.2826380
396.9264200	2.0734021
451.8693100	35.8011850
396.9846700	-9.1874525
394.8242700	9.6705318
396.8556900	12.4764870
412.8752200	-18.5635560
443.3654300	-17.9251620
397.8243500	-14.6512340
422.4085300	26.5018300
414.2103400	13.0504600
445.2735300	40.6040450
378.1615100	41.6073970
393.4099600	15.8474880
394.1739800	38.9782790
382.4626100	21.6004000
421.7377200	26.0587170
354.3807800	-17.2237160
407.0026800	33.9477810
418.3960800	-8.7535029
411.8755600	35.8410210
406.0832500	-26.1047170
377.6204000	23.4758390
398.2584600	-19.2390510
353.4556900	1.2251332
368.6423700	-29.3156130
370.4670500	19.4431360
370.9057800	34.3778890
380.2425500	15.5393260
417.4534500	-40.3508650
367.2617700	-42.0584160
410.5167600	2.8020963
348.8223700	32.0947030
350.4708300	23.9718500
365.1201300	17.3055400
387.7866700	-6.5582663
330.4860100	26.6539010
382.4598000	-8.5830452
368.2080800	-32.1120930
322.6873000	24.5943480
317.6652600	4.5976598
315.6686700	-30.4281210
337.2368700	-17.6393420
369.8576300	-14.0433260
331.3985600	8.6364659
373.8506900	-30.1394360
355.4041000	0.4226078
339.7697200	16.7182530
344.9010200	-9.5893350
305.7008700	20.9284850
341.4780100	-5.5900906
347.7759200	12.0702260
309.1966700	-10.5484040
302.8036300	31.4785590
294.6241300	-7.2229523
294.8567100	25.8829280
370.7376900	-37.8703160
346.6150100	-14.8084600
347.2600500	-35.1075830
359.7374100	-9.7803142
299.5137200	-29.2123270
284.3271800	41.5986650
320.9339900	-27.6006890
350.1662800	36.4806130
340.3592000	-3.8567853
358.5254200	-8.2699703
291.1471100	-38.3774890
294.0355200	-7.8078904
328.8628500	30.5895280
343.8387000	-39.3437140
292.0193200	-10.6967650
295.1513600	-35.5322860
330.4330900	20.6750330
273.7640100	-4.4328651
265.0067900	37.6186930
276.0588600	-36.2592720
269.8348500	6.4127205
315.6260200	-6.1726407
312.1113200	29.6591030
283.4978900	10.7209550
324.3611700	-26.1082040
303.4732100	-40.5016400
261.6303400	23.3183580
252.7960200	25.6131140
264.9927800	-20.3874850
294.0774400	-23.1373490
263.2607700	28.1827660
261.0461200	27.9587710
283.2201100	-15.3238900
275.9475400	-5.1160180
308.2999900	-21.0284720
300.4660700	39.9974430
242.3739700	-2.6429539
271.0388000	-8.0713007
273.6992300	-33.9564180
244.7872900	6.3723698
276.0147000	28.5037880
261.3779500	23.9671350
233.4316200	-20.2586560
296.5141700	36.9077910
262.3015200	20.3415640
231.7296100	-25.9235300
240.8099700	10.2530810
250.1474400	-24.5626560
239.7880600	31.3586150
253.9230800	-15.2151020
292.2873200	3.7533060
228.5111500	-30.1427280
254.7177100	25.3010860
220.4750700	7.2788313
267.7025700	-22.1487880
223.4078200	39.9882840
286.1000900	38.4258770
241.5114800	1.4705472
275.7313100	-33.1876510
236.8956900	-18.0353910
286.6340000	4.0318170
227.7539900	30.3488890
239.8601200	-18.9525290
217.0720900	41.2062230
236.6670900	30.3461350
269.8612900	15.4544840
217.4544400	1.6641428
208.4353000	33.4895630
275.4751100	30.8886370
247.3936400	-8.9330889
277.0666000	39.0704160
195.2435700	40.9112400
224.0639700	-27.2448280
215.3548600	-1.7117274
237.7397500	7.0102959
198.7966900	-2.1804309
235.9946800	2.8938114
239.6307000	-18.0876630
218.4778700	-17.0706250
198.3141600	-30.7053840
253.0620600	30.0270540
232.0061500	-4.6913175
252.3965300	40.1259680
243.1875300	24.0470220
235.8055100	26.2358870
181.7192100	27.0422400
201.1967500	-7.0811406
252.6799600	-32.1345410
251.6959700	-1.4389432
247.6690700	-31.8390610
226.9230100	-37.8239420
220.0862000	24.8507390
246.2320500	17.3947210
209.5896600	39.8166470
220.6007400	-13.2780210
187.0026800	12.3379870
202.3579000	7.5148923
223.2406800	-2.9943020
219.0251500	-22.3829070
238.3908500	16.3520440
189.0634000	6.0695953
210.1866800	26.0543550
207.6260200	-9.1409849
174.1553400	-37.2139110
167.9926500	40.2267890
219.8491900	-33.8284490
215.0251400	-7.4838396
173.9539000	-13.1012500
190.6439600	41.2312650
237.5053900	42.3213460
163.0962400	16.2890890
172.8552200	41.1831450
206.2530500	-39.4055030
168.9240200	42.5152790
167.8362700	17.1108420
183.0704900	30.5515330
204.0988000	36.0005310
210.6786900	21.5545450
162.4522100	2.8066712
163.4995900	13.8292650
217.8501300	1.7588212
223.2473600	18.9161910
145.0743000	-4.6624022
198.3433400	-10.3974450
171.3050900	37.9152720
202.0167500	-42.3056590
194.6018000	16.8214760
192.5849000	-35.1514670
182.1269000	-5.9750197
204.8891600	-34.0343950
191.3865200	-38.7685040
193.8946300	14.7163350
164.8890100	-13.1564640
180.4767600	-7.1259113
177.2168000	15.0113510
153.9992500	9.7194216
211.9127800	-4.6269512
131.0974900	33.1333850
148.8651700	16.3432700
205.6359400	21.5331650
164.1397200	-19.4692330
155.0376700	-10.7864220
165.6758000	-13.3538200
204.2654000	29.1452540
189.4882300	-16.9180270
158.9085400	-35.6232060
145.5000600	18.3561990
183.6643600	1.4700000
147.2098500	16.3893350
129.5688300	34.0652570
185.4170300	33.8956760
177.1616800	-39.1164440
133.7146200	14.0485930
143.7700100	-34.2790980
119.1132600	27.8634440
200.5593400	14.7140200
148.7432600	-21.0760430
194.2820000	-40.8020910
135.2127200	39.1289230
120.7703500	-20.5600570
193.9398300	-12.7822480
117.4392300	-21.1002600
115.3509600	-36.1572250
163.4473400	1.6612167
127.6112200	14.3421800
153.8724100	5.1459485
158.5621300	-31.4698580
130.5111600	-15.5611860
172.9000100	-11.8308770
113.3541700	17.3707890
176.9159000	-36.4268520
127.8247000	24.5009000
122.4157100	-32.1896910
173.8991000	28.8912610
138.1965000	39.0384830
169.6588300	-37.5471550
154.5064100	-17.3940490
166.7147000	-7.2739765
155.2055400	0.3201425
155.5633200	-31.6109280
155.7839700	34.5492730
108.3726700	-41.3261130
132.1847300	-37.9387410
115.4685900	14.9538710
132.2369200	42.1943590
109.2673500	33.2976820
179.2356300	-37.7165640
143.8435300	18.4932050
105.5144100	-7.2086241
177.5654600	-33.1504810
163.0427700	35.0628460
172.1820400	26.2380510
135.6919000	-39.9722210
128.8953600	11.8077700
107.5588400	-23.5982730
151.4442000	-7.3952664
168.4720900	2.5742689
151.1908300	16.4388340
133.7904200	-38.6619690
166.9339300	-24.1681540
120.6818400	13.8481840
116.5207800	37.0125040
132.3419900	-29.1442140
84.6961770	-34.8712860
137.6791600	-29.8378990
95.5736350	-0.0794315
158.2652700	3.2516169
135.3951800	-33.7647210
166.3095300	2.0656035
90.8480220	-42.3539200
103.0591600	12.6220210
130.9759100	25.6911380
84.7107370	-14.0479230
115.8502100	-42.5493780
87.1839010	32.9786340
128.6397500	6.7629544
81.0127630	-27.9598730
76.0195690	-38.7134750
82.2150210	33.1794040
119.0055300	27.1968580
124.3269500	-22.1811830
104.8837300	-33.4233470
107.6764000	37.9290630
139.6741700	-24.1369850
119.7495500	21.6079880
113.6028600	-31.8874420
151.7306800	-14.1633860
73.9642540	-41.9056260
154.9057700	-1.7661007
85.2323390	6.0952986
70.7380070	8.2318716
71.0404940	0.6943122
86.0691190	-29.6643340
119.3397100	-32.9376950
109.8711500	-15.7573310
123.0710900	23.5385670
127.1147100	-24.4484430
146.1078000	39.5888600
134.5859200	17.3301630
134.7400500	-1.5123365
107.2686200	-41.2483510
83.8007770	2.3312576
128.7078300	34.5213840
94.1461410	13.1643400
114.8533800	-38.5087680
83.0042070	-7.9060310
86.9407290	5.3335737
61.7257700	-15.6401110
108.4508700	20.3935120
143.8159200	19.3112960
93.2463830	-42.1969780
73.2985810	-11.9786310
80.8303010	-8.0596426
116.7960500	-37.7733080
118.9421700	18.9816240
89.4323260	20.4993300
68.5311230	36.8426550
77.1098590	-17.4039390
116.3600600	-35.1746060
137.8695600	18.0294870
120.8142300	10.7592370
85.5304910	-8.8026476
136.5640000	37.5551600
67.7948770	-38.0492860
61.8573230	-17.5996510
81.0062110	-39.6954480
65.4953440	40.7995690
104.4325000	-34.8330220
80.6041440	-32.9851730
125.2359600	-21.7137500
73.5810460	23.8559640
95.3473090	-28.0601680
67.0595770	37.3678940
105.8979100	-3.6842750
54.9084600	-41.8583810
128.8362600	-8.2134408
78.8880460	-16.7044580
79.1863310	-31.3337880
48.2930110	31.1719310
57.3168480	-12.6982830
90.7704480	12.1887420
60.8381590	35.1919520
85.4599880	-11.3446370
56.7426610	-29.9408200
45.5288930	-14.2771600
57.8159980	33.5265110
120.3496200	10.1785460
117.5764200	-25.3183740
61.0593200	-17.5740480
79.5824580	-8.9475772
101.4145200	-27.4108400
120.8847600	28.0164500
96.8983210	-5.5694835
107.3430700	38.6712580
72.9939110	25.3079240
73.8378040	3.6347962
53.2876650	20.5345640
58.4406730	-35.8453710
98.7954310	-28.9751800
74.8298880	42.4411150
111.4998200	-9.8356645
117.4736200	-23.7028490
76.2308480	31.7143400
60.4983620	5.2221565
108.7466500	33.2514230
118.8854000	17.9527010
46.3392560	3.4879039
56.2787350	-6.3688218
35.0100130	20.2906730
94.2809780	25.9727600
95.1887080	-42.6734830
90.2774900	28.5877760
86.5996520	29.1318390
98.3589380	-38.1768480
55.1348430	-18.4478540
68.1124260	37.2117490
47.9654340	-32.2755410
94.2361670	42.4136590
51.9644050	6.9400936
62.5216210	20.3476900
107.3427400	6.7512340
75.0219160	15.0580370
61.8337980	-22.0350210
66.3310760	-5.7503404
56.8184510	-17.4793650
98.0677030	-31.2967290
29.9762350	-24.0435070
78.7491510	34.8295840
69.8493070	-25.3076300
80.6940170	19.4382930
38.6910450	3.5770189
69.3477470	-40.4284070
40.8112430	30.1689000
99.8382740	17.5230620
72.7899450	3.0384037
28.3274690	-34.7387200
90.4743890	22.8701020
54.6309620	0.5709361
109.3823800	-22.1804580
58.3171800	11.2673200
78.0151760	-6.6306339
99.5544170	-38.6272760
79.3777600	17.8555930
59.3508380	4.9905462
57.3956750	-30.7442920
26.4333860	19.7369690
23.2416620	-18.2491530
56.9193290	-14.0858440
102.9734600	-31.6845280
105.6164100	6.5102565
69.0860640	-35.7115810
69.5469940	-42.1861430
95.0985270	34.7810210
55.6755720	-9.9017824
80.7925770	4.5476011
79.8955050	22.0186180
28.7966280	22.7203390
94.5940270	-29.6000200
69.9431040	30.5398510
79.1226500	12.2716590
45.7358590	22.9465130
29.8373770	-34.7141970
82.6110020	3.9245911
26.2135390	-11.8246680
44.3095020	-12.9986590
68.6353420	2.8589826
24.8369670	-34.2063650
66.3165160	-8.7561228
68.3941280	-31.5015950
99.6815190	-23.8424510
67.3451400	34.3544170
63.3526610	-40.5931550
65.1354370	28.1061550
41.8953130	-2.6365652
83.3641580	-0.8714005
62.9819590	12.2324970
67.9697580	22.6897350
85.0829960	25.6364570
27.0620630	-20.8129930
68.7803480	-7.6841530
14.3198040	24.1098850
65.4698050	-14.3955030
35.5409740	-6.5363955
44.1082120	-11.3037810
13.8458220	-20.5739910
22.5741340	-10.4055960
46.0772940	-16.2642560
73.9897220	-9.8032412
19.3222980	-17.2135040
34.2510040	12.4148910
51.4036310	2.9908120
48.1836330	15.7593830
83.9561850	37.0382830
39.7898510	-19.5636860
62.8511350	-37.7373540
62.9384980	20.1687370
19.2913760	-18.3310510
48.8752330	-22.6230430
72.5656020	24.4199770
31.2320110	42.5312890
66.7965350	27.6394850
13.6717880	2.8136824
68.7362820	19.1472560
41.6542970	-2.0352553
44.3375470	29.2197330
23.9632950	5.7177070
8.4686518	29.3143900
59.4497520	25.5087860
53.7361230	35.7640730
53.2585110	5.8569361
19.9942740	-41.8874440
79.5956100	20.7368620
77.3095260	33.7147380
65.2231870	-3.2536886
87.5707620	23.4551540
13.9429380	-41.6544400
82.5372090	-9.4909673
82.1994470	-18.9557650
65.0786700	-1.9177658
55.2720700	37.2393960
43.1735990	4.7988813
41.3518570	41.4764550
60.1762730	-25.5215010
9.1455528	20.6378220
9.3710240	-36.2378140
34.3009690	-31.2897960
74.1122210	-34.7372230
11.9709100	40.0469210
71.4913550	-14.5706760
31.8383900	5.2336912
75.9853910	-39.8082420
11.9323040	-25.4119060
84.8259910	17.0896120
35.9655320	-39.1171880
3.2325739	37.4765290
17.7666370	-26.2083120
64.4004190	-38.3463620
3.7502024	-33.3581390
10.3438120	28.4154520
57.1767610	-19.9092160
50.6521930	26.4109950
37.0150860	-3.7434165
43.9507810	41.9828620
30.5955790	9.1145091
21.0748560	24.1457040
7.7912874	23.9872350
47.9178450	4.2662115
26.0905300	-1.9634843
45.9526910	21.7247860
2.5412355	1.3465089
23.6169270	19.4915140
42.1214540	-22.1569640
23.6070880	-25.2821010
20.0171790	-14.3222010
23.3283300	-8.5238797
12.6314470	27.4282990
14.5136890	6.3586826
59.5583530	-27.8984030
50.0800980	22.2205180
-4.1656333	6.2338894
26.7618110	40.7721160
8.4024434	26.6018650
62.9611590	9.7551861
37.5214130	-5.3564073
41.7827040	35.7960360
59.4684910	-6.4976607
17.9552680	24.5584660
77.0918740	4.0358689
34.0372940	4.3179465
69.3040060	27.8015300
52.4413440	-9.5023627
28.3430580	-40.7053760
68.3954730	11.1539450
36.5684350	-0.4246058
-3.2321381	-25.1004170
16.5663230	-19.3715930
11.1037650	-13.0216550
-5.4334031	28.7262120
20.9605290	39.4107140
43.6380210	4.5123173
73.1356140	-33.4102500
15.7154230	-33.7897630
21.4847480	-35.8286730
63.1563850	14.7870990
75.7994590	-22.3428400
57.6747510	27.6010210
44.4459220	-8.7268797
75.6834190	1.0111523
20.9039160	5.6303034
12.4757090	29.4608350
-9.0403598	-41.1153150
11.2712910	-15.3253630
50.8855710	-0.1861262
10.8904450	-3.8404064
25.5712120	29.4417400
73.9378970	14.8334640
48.4829420	-34.8787680
65.5223960	9.7424328
2.5619002	38.3303890
53.8043310	33.1228860
10.1340410	-11.6510050
51.4759880	-23.6004660
40.4884560	9.4857356
-5.7248901	-23.5363420
55.2587270	17.7317500
60.7695710	-35.9093300
-1.8714146	25.4487560
18.4064600	-33.9769970
-6.7578456	25.9929510
20.8948140	28.2243670
48.7734620	-39.6225890
50.8673610	30.8902240
46.0117310	7.3164518
46.7850890	-3.6773266
37.0083300	-2.9462728
32.2918040	11.9882880
62.3933060	-5.1693140
22.2469640	-25.1908570
45.5493320	-41.1093090
-1.6483259	-14.2662480
25.6435400	6.4471912
9.7404204	28.6451940
23.0234510	25.1889020
59.0018040	12.4027520
42.0537280	14.1332550
-6.9212306	5.7867468
40.5044120	-16.4113180
5.3004974	-37.9873370
16.2710510	-20.4444420
23.2124670	-7.2195720
3.1830971	-26.9437750
9.8393581	7.4802119
30.1311630	24.4353330
12.6464160	19.7337450
50.0094900	-8.8870807
7.1104087	7.1930608
63.2084550	-23.4834850
41.2448090	-30.9305110
20.6198890	20.9342880
54.0131040	-37.3707210
64.3026450	41.8338430
-6.9360225	38.7201310
-13.1258450	7.1817221
9.7373126	-25.6592520
67.4322710	-28.6286120
44.7960820	2.0516038
21.5887810	-30.2968290
22.8794850	-11.4111120
21.1365930	-42.2000400
48.4068200	8.2287326
26.1697240	15.6074920
52.6903510	-8.7333207
51.7516450	9.3576401
33.3679360	24.0442890
-4.7061557	-8.4250682
-11.3882340	-7.7382364
32.6364440	-30.5687950
49.7081950	8.4152265
40.2712800	26.8677410
8.6901841	25.5273180
4.9521576	-20.1125990
19.9377300	-36.9434740
11.6833350	31.8429370
13.5428820	-40.4879670
6.2966228	38.9406200
-19.0921120	-8.3256613
17.9273450	-8.4571029
-5.5425345	-35.3927390
-5.4815287	9.9363838
2.9875862	-6.0696763
12.6400860	-8.5867722
2.5789453	1.5698854
-6.5816180	16.0064600
44.4768020	-10.7674870
46.6644440	4.3222245
-12.6839190	24.7845260
29.6411300	21.5608070
27.5693450	-17.7475620
55.4306800	-22.3187340
44.6011630	11.7073390
47.6946510	0.7588024
27.6406230	-24.8824120
-9.9753380	31.4219370
12.7056280	-18.0016310
30.5617000	-38.6102580
63.5875520	6.0748442
-7.2410587	11.9806400
-18.0294380	25.2729220
51.4513140	27.6134120
5.1970293	14.9768090
44.7395050	10.9331120
38.9706390	-35.4954570
-21.7614420	-13.0396020
-17.0082080	36.1579410
-2.9061834	24.0986610
54.4044710	-23.2089360
30.9540030	-19.9054380
-21.2261270	36.5943920
-10.2454730	-11.5184720
-1.5617250	-18.8710360
15.8656780	-23.2498550
59.6263460	35.5266870
56.7505140	42.2781260
56.7846830	7.1349536
13.9773800	-30.4389750
-20.0373110	17.0249850
8.2964991	28.0068060
-22.9863330	-18.2265750
24.9410580	-29.6967940
23.5182120	19.1376450
55.4121590	-35.0336600
-19.3501630	-24.5368000
9.9790773	-3.6234749
44.5523260	-34.2915670
-18.1137430	-16.2381090
35.2729540	17.6348970
32.1814050	39.2402060
11.4953930	-6.6152691
29.8932520	-5.7256333
55.8542290	31.5325360
36.0661370	-35.8748590
-1.8963079	41.0480800
24.3965420	-4.3591087
56.2880530	-25.7985050
-20.3037370	-40.3287130
-0.3573864	25.6307390
26.2058700	-10.1494570
32.4534200	16.9671450
39.7861100	14.6520730
-17.9983100	16.6743210
59.3493640	32.4191380
-10.9163840	38.7176880
15.3127440	-10.2023080
21.1845770	-36.4925250
13.0376290	15.1521860
38.1190830	-12.7638680
55.9326000	18.6683570
-3.3709094	-12.9471030
-19.6069350	-35.6695710
-4.0312752	39.0438210
5.1636485	34.4137540
31.6424930	-26.2093470
-17.8935010	5.7113551
23.5357640	-0.3558359
-19.8593500	-3.6759914
35.6923040	26.0072480
31.7423660	19.1039090
48.0709130	37.0650320
12.9760580	42.4838230
40.0471440	-11.4387720
50.2139970	-14.0595800
5.8531599	41.6168710
5.7123100	-13.8530660
-6.1375948	12.6099530
53.7716050	-13.5190770
15.7911250	16.2155440
51.4296780	-13.6684080
16.7683960	26.3075280
0.0696854	-31.2825010
-22.6097500	-26.6261620
-25.3245500	-9.5235968
8.9360373	-20.8738100
42.4860170	8.3654457
35.2787630	-11.0947970
31.8317010	-25.9735730
-13.9482710	-2.7808458
-19.6844100	7.4410906
10.6673700	-15.4454260
-11.8552110	-36.7822360
55.8551330	2.0711508
-23.9998220	-13.1891330
-22.7515720	-18.1714540
8.6776953	38.6652770
-1.5614716	9.0609021
-18.1820100	30.2656580
-4.7659565	-26.0704220
29.8347410	-34.4634700
20.1905690	12.7431510
33.7808470	-19.3897390
50.3597350	-36.7803920
-17.1797700	39.5884410
52.5296790	-4.8514934
-16.2689240	15.7141790
0.8087163	12.0569290
49.7560070	27.6676800
-5.0654803	36.1404730
51.1636930	-20.3340880
36.4067340	2.2306558
-2.5891712	27.6594540
15.7919490	29.0239460
-7.8634311	13.0102040
48.4455770	6.8078019
43.6632550	29.8858280
35.0645520	-27.3255320
42.7977180	35.4483560
31.3205880	21.1365600
5.4073980	41.9157250
-18.6240020	-28.1856240
-18.3975750	-1.7537884
3.8810705	-38.3115850
-24.3349400	-39.7500730
22.9239430	25.2514660
-20.4746440	42.3293350
10.0830400	16.8658810
-30.4761870	-32.9241720
47.2390460	-6.9883676
44.1279620	1.0574289
-15.0544460	-24.2293940
-28.2811880	-2.5233779
43.9609390	4.7629575
-9.8275248	-26.8984160
35.0917830	24.1926030
-3.7683583	26.4923350
-20.8500880	29.4362700
45.1348280	3.0111100
12.9911400	-2.4800959
41.6182840	-20.6838840
1.7318750	-24.5816300
-22.0791750	-38.0828590
-27.5608450	-37.4947030
22.9912260	35.3357910
-9.5990866	15.9063930
-2.7550283	-26.3102480
42.1530010	22.7399960
-10.0662310	-14.3328870
-6.5496217	35.5136220
31.6826870	35.5256850
-3.8908807	7.9499913
-24.7223420	-41.3349310
40.3261640	15.7045520
41.4006790	-22.0868890
51.8297840	-39.3403000
-0.0362273	-5.9892450
39.0306940	-13.5923100
-4.2482435	7.6956187
32.8635970	-32.4957250
-17.6216700	-4.9538900
1.6169702	41.1401860
-24.4157010	-40.4098640
22.1831130	35.1271450
6.5703868	28.6233780
-25.6763820	-35.3405490
21.4270730	-7.2188224
-28.0579120	-31.2611050
-20.6750260	9.7570375
-20.2448990	17.0877550
-31.8285710	-12.1187670
-7.7452327	23.7183710
40.7823540	19.2361630
26.5521810	-32.0793260
-9.3476008	33.1575830
50.6588600	-31.6550470
-19.8414950	-37.1391420
19.0216880	-24.8310000
17.4572490	-8.4109400
48.4618700	-31.7314990
-5.8663429	16.6898330
23.9088110	-22.7665760
-26.0781110	31.8393150
2.6947859	-2.5373011
-16.8704470	26.8682840
18.6142620	-30.9860060
-9.8639258	-29.5457440
35.8221480	12.2630460
-0.8857573	-17.4964260
-3.7917697	-11.6676140
2.7133767	1.8978884
36.3715150	-11.4779170
6.6958220	13.5535890
12.7122530	-11.7335070
18.1242240	-5.5385154
-26.3493910	13.8449480
48.9509010	-17.8277260
-27.3124490	-30.0486420
31.9493390	-30.2929440
45.5613560	-5.5052200
26.8659710	1.0916743
12.5741830	-1.9123265
-14.8860720	-5.6597644
40.1412560	6.2300834
8.0573745	20.7878730
45.0977440	40.3874380
40.7001870	-2.1721156
24.4194370	2.5530711
41.1790890	38.8912190
31.1803080	-39.4720460
-28.2162510	-6.4255667
35.7056670	19.0058040
-26.8870230	26.2838250
-24.3643140	-21.2286490
-28.0387460	-27.7384910
19.4784660	-1.3783650
25.7004760	-40.0863430
43.8835590	-18.9425660
-27.6405720	-24.3231820
36.1521350	0.2613077
44.6921930	-29.6526840
-28.3056270	14.2419030
44.8572580	19.9444040
9.3640560	23.2989580
-30.4208780	-26.1727450
21.9729150	20.3744650
7.9530767	-8.7499568
-31.5208730	-4.0539287
10.9498790	9.3699850
-29.4760690	5.9689109
45.2300860	-18.0513430
26.1714030	9.8324682
27.2294960	3.5486804
44.9663410	-10.3895480
-24.4537560	38.7359790
-23.7868880	-30.7814760
-34.5288430	-12.6172910
-15.4047510	-6.8847265
-1.2996521	-37.4637860
43.4472780	40.9890650
-19.4628620	29.3225390
-7.9898472	-11.7412790
-13.1842340	27.9826400
17.7985780	30.2066080
37.2561860	12.8631080
22.0251330	41.9548120
5.9312842	7.6973963
20.1890490	-16.5709530
13.6213360	-23.0659880
41.1330350	12.5486580
-1.2855691	-3.3004671
42.1907490	19.7047340
23.3871360	-18.9934890
-10.6529650	2.3189705
43.4109810	30.5423820
27.4708020	8.6571299
18.7071430	34.1873320
-32.6703080	17.9442250
-6.9812295	-14.4777910
14.1487600	20.7625910
-18.4463140	4.3230345
-12.3214080	-6.6150681
14.8895000	-31.0376620
-10.2184150	-18.1550790
-18.8565450	-39.9723600
20.4760950	22.1296170
42.1346580	-13.7979140
-5.7638161	33.2841730
20.6308900	-11.9165910
18.1844440	-25.5420010
30.8026850	1.3038483
47.6624950	-34.6257100
18.4690710	4.6271220
-26.1403340	-22.4298310
-35.6725740	6.6919977
-30.3631790	-11.0168160
28.3344550	39.4542090
-1.5501078	38.7217400
9.1808331	27.8928010
5.3315500	-36.8786300
43.7159140	1.8620438
36.1390130	-13.5612890
-22.7810680	-42.5600000
9.3840895	-24.9639180
40.8061560	-31.7047960
3.2187373	-5.6247835
22.1394740	-31.1406750
-25.2083340	-9.8263638
-18.1761120	-29.7637740
22.4299750	-18.0306940
31.5777500	11.1880860
-27.3200390	-15.7463580
40.0658860	30.1816150
-14.7851290	28.2718460
-9.7255360	-15.8720680
-7.5613368	14.8813160
23.8188670	21.5888810
4.4916426	-34.6691130
20.0889640	-40.6648810
3.3039048	14.2466770
31.4817710	-6.7933527
-16.8954130	20.5524840
5.7075220	23.5055640
-15.3162650	-21.1967900
7.4189197	-4.5744575
-35.8933700	33.3742860
47.2479130	-34.8117160
26.7752900	41.5345160
-17.7358270	0.2322476
-6.3357563	-34.2364560
41.6243960	-10.5296700
-4.2649132	39.1539960
-11.8662690	-1.4394825
19.1599470	28.7661990
-11.4204760	-0.3723092
-0.9448340	38.0399060
20.2999210	37.1001720
39.2776660	-8.2639952
-31.9879280	38.2550590
29.2574260	-30.8226060
12.9899740	-21.7014020
34.7098950	-5.2433787
34.8897320	39.1598360
-37.3599150	-37.3692590
11.7666100	-42.7323040
-13.6922310	-12.4230510
6.2324375	21.2849830
21.6156500	-22.0126590
-26.4845530	12.9192200
-20.5260700	-4.4465178
-11.4985480	11.9504770
-7.3174026	-12.3619550
41.5779430	-41.7083460
38.3215230	8.4452485
-14.1341880	-32.3275260
34.8305580	14.5786230
-10.7028040	6.0074405
-35.0450160	-33.4884280
7.5122091	-10.2523420
-35.4822810	-1.9621885
29.9193840	-18.6008900
7.8619902	24.5782560
-15.3879440	-21.0165670
5.4605587	33.5885690
10.0410770	-8.3625577
-21.2279340	42.6120690
1.3797963	30.7742950
-29.5963150	24.3362410
27.7200180	1.4906037
29.8408540	23.3109510
-29.2500520	-20.8252280
-35.8578160	-38.5351280
13.9479370	10.2885970
3.8359390	14.8789980
7.9866516	35.0991000
4.0479558	-17.4792400
-15.9118250	-14.8899260
-20.8796050	-20.8600570
6.6388647	2.3187708
19.0717150	4.9293913
-29.1278920	-42.4621550
20.7981400	-18.8080100
21.9729110	-12.2072100
-2.4976533	13.4068960
24.6918800	-14.2912460
18.3901510	32.3533540
-38.0973580	-5.3106491
7.1499504	-8.8434095
-12.0247500	-26.9051750
38.7856400	-11.7526170
18.9392100	-29.8743440
26.8897040	3.4754625
39.3684430	19.0281760
-35.0069650	16.6178090
-15.3229810	22.1034380
-18.8841890	-40.8557060
37.7907680	-37.8755450
-4.3376152	19.6891990
43.2453850	-38.5032850
-29.3436790	16.7314700
20.7650430	13.1678090
45.2683830	1.3467933
-22.8308850	7.1033650
-33.2894920	36.4482730
-6.3518127	0.7737484
41.2955190	33.2896360
43.1782400	-42.2519830
-22.0035320	-6.9297078
22.8188950	20.7574020
-2.6100924	-1.4914988
6.2974288	-10.9936800
18.5299000	25.0027660
-8.0096587	1.7054209
-31.9641710	-22.8552460
42.9500890	-19.8552580
-20.4413570	-2.0429596
3.9034171	-0.1380005
-0.2235053	42.2471980
20.2445100	-31.2519010
2.7396884	-30.5042250
8.5166590	-41.7706450
42.1409190	39.0297900
-39.0971820	24.4909460
-8.9049407	-7.1681520
-20.9523410	15.2528540
44.7352730	27.9778090
3.5913813	24.0837290
-24.6847070	35.3463860
33.5467470	-27.9489890
-38.7752140	2.7148027
17.4183190	40.6358270
32.7208860	17.2819360
