jMRUI Data Textfile

Filename: dataset25_nWS.txt

PointsInDataset: 2048      
DatasetsInFile: 1         
SamplingInterval: 2.5E-1    
ZeroOrderPhase: 0E0       
BeginTime: 0E0       
TransmitterFrequency: 1.2322E8  
MagneticField: 2.9E0     
TypeOfNucleus: 0E0       
NameOfPatient: dataset25_nWS
DateOfExperiment: 
Spectrometer: 
AdditionalInfo: dataset25_nWS
SignalNames: dataset25_nWS.txt;


Signal and FFT
sig(real)	sig(imag)	fft(real)	fft(imag)
Signal 1 out of 1 in file
51004.8770000	-173.3166400
51051.6710000	-483.5869900
50502.9770000	-694.6192400
49831.2840000	-749.0576500
49196.5250000	-575.5741500
48741.7320000	-264.6654700
48597.2380000	164.0172400
48559.0150000	383.4628800
48583.3560000	465.6095700
48628.0340000	317.7741300
48594.9390000	137.8418300
48287.0560000	-77.0480000
47934.2800000	-231.7257700
47496.2480000	-284.4235700
47082.4600000	-192.8424700
46823.9540000	-34.3055830
46652.2160000	102.1410700
46581.5320000	193.7597100
46482.6590000	130.7696600
46319.6970000	10.6832220
46025.5200000	-120.6390800
45743.9180000	-161.8383300
45405.3020000	-136.8568900
45108.0380000	-36.0903230
44940.9450000	79.7208580
44793.1760000	206.0518100
44731.9700000	216.1910100
44602.1770000	192.7960200
44494.5200000	75.1617890
44278.5080000	-44.5920960
43987.7030000	-154.7564900
43643.4640000	-216.2161400
43295.3140000	-266.6709700
43038.8390000	-142.5513500
42818.9460000	-21.5369180
42678.3720000	168.2284500
42585.5330000	185.1867800
42450.0330000	245.7519200
42343.6420000	208.7482500
42239.0060000	66.5662290
42068.0840000	-78.3491840
41811.0010000	-103.5420000
41513.1980000	-186.7846300
41187.8370000	-161.0582300
40935.1510000	-110.9592000
40773.4340000	-29.6894190
40615.8870000	56.9235750
40465.7810000	124.8274300
40307.6590000	74.6212580
40244.1690000	105.9251700
40035.9090000	-2.7776579
39850.3090000	-99.1270180
39542.4440000	-150.7069600
39275.5840000	-157.1354100
39016.1430000	-111.2328800
38842.9340000	29.1165510
38722.7150000	107.1680800
38570.8130000	131.1606100
38501.7280000	134.2786900
38349.9060000	112.7447700
38238.7100000	17.5742210
38023.1320000	-57.0776250
37749.1890000	-83.3808100
37515.2520000	-99.8169430
37286.5040000	-27.9073480
37042.5110000	8.9220467
36931.6660000	68.5754630
36879.5190000	156.3276400
36766.8420000	69.0769610
36617.8860000	-9.3112443
36470.1480000	-29.5323790
36175.9070000	-103.8364000
35962.6240000	-154.9310200
35679.5280000	-65.5698840
35492.1180000	-13.3007680
35352.3350000	60.2740200
35287.3650000	103.2160300
35193.5360000	124.8004500
35096.9570000	42.4683390
34891.5020000	-66.4891510
34695.7570000	-116.6422000
34489.5200000	-83.6675840
34197.3340000	-69.7906920
34009.6960000	18.0735120
33871.9710000	116.6445500
33832.4670000	181.3873300
33753.9560000	157.0443200
33652.5900000	106.4781900
33524.3350000	19.2449040
33361.4120000	-113.8945900
33153.2160000	-100.2574000
32920.2170000	-143.0813300
32703.3190000	-113.3439400
32462.2240000	-74.6085130
32336.9000000	45.5942650
32266.4830000	98.3000900
32179.8220000	95.0857340
32050.2050000	32.7911070
31920.4230000	27.4120850
31736.9900000	-48.5075230
31548.7350000	-97.4598390
31390.2210000	-110.5261100
31210.6280000	-28.4531680
31025.7960000	-32.0811090
30934.7030000	11.1279510
30771.6110000	41.0856650
30701.4350000	40.1545820
30557.5540000	28.8013630
30382.0890000	-5.6122143
30232.9630000	22.1580600
30033.5300000	-47.2939170
29878.1250000	17.9811350
29799.6460000	66.1540180
29672.2920000	53.4159870
29572.2240000	73.5820000
29400.9730000	75.9017970
29286.8770000	49.4196640
29168.2450000	18.7458530
28983.1150000	-14.8278410
28857.4870000	-76.2420380
28706.4430000	-42.7175520
28546.6080000	-42.9506910
28361.0360000	-4.7407397
28282.0090000	35.4577770
28151.0060000	31.5724590
27980.3470000	45.2023750
27952.0090000	63.9805840
27814.1510000	4.2030069
27704.5710000	-38.7566920
27546.3230000	-23.8828750
27405.0090000	-18.7548430
27244.5210000	-28.2248960
27062.9280000	-30.4954010
27010.0840000	30.3559020
26890.8030000	53.2238630
26736.1900000	51.7852570
26639.9620000	55.3344240
26498.7500000	-0.0679828
26402.7730000	1.0523736
26289.1750000	-43.6197830
26135.4780000	-25.3107770
26031.2060000	-40.3563900
25885.8640000	0.9868731
25719.8180000	-42.7718950
25632.0010000	-8.8956588
25472.4240000	-30.1944550
25351.2470000	-11.1472250
25282.9120000	-40.1431090
25149.1400000	-15.1392150
25011.6220000	-8.6127144
24944.3800000	-29.4801050
24756.3510000	22.3507090
24694.1320000	-22.9458020
24593.4740000	35.7603030
24462.7660000	3.7834324
24366.4580000	24.0029290
24287.6700000	11.7095230
24161.7070000	10.8879200
24047.5760000	-6.3210064
23900.8230000	-39.6704690
23776.9140000	-10.7506380
23673.0640000	26.6486500
23576.8810000	-9.3304600
23447.3290000	33.9738650
23338.9940000	42.7964180
23235.7750000	15.2378210
23102.8700000	-16.0260430
22960.8530000	-19.5278790
22903.5470000	-7.6413582
22770.0360000	-5.6646500
22644.2800000	4.9229498
22509.1260000	-36.7340480
22468.6320000	16.7160780
22364.5420000	19.1474380
22289.6420000	14.6155680
22134.6590000	60.0890480
22041.5780000	54.5950450
21962.8020000	-9.6436646
21864.3730000	-20.4327040
21748.8530000	-45.9260920
21699.1300000	-29.2240450
21573.2920000	-7.3025094
21471.7400000	-39.8055790
21325.0300000	-1.4390487
21239.9070000	-34.5123880
21130.8180000	-21.4128280
21001.1520000	-20.0016510
20903.5030000	-46.3594440
20816.4620000	-15.7457150
20741.8730000	-21.3264560
20602.4390000	-34.4188450
20486.9290000	1.1377298
20443.9110000	5.3812057
20351.7680000	-29.8069290
20231.3160000	3.4586280
20144.3400000	33.8050010
20014.7640000	21.2335270
19993.6990000	10.3043220
19915.9920000	-15.3391400
19810.6680000	2.5732794
19716.4910000	13.4430200
19607.9550000	-0.0792492
19498.2110000	20.3477240
19386.9060000	-37.5419180
19314.2550000	-29.3515040
19257.1950000	27.1168200
19117.9370000	26.9571670
19095.8370000	-43.1518830
18949.9820000	22.0445910
18876.0700000	13.9747930
18756.7510000	-15.5599280
18719.9240000	-49.4710130
18555.5640000	-33.3932050
18464.2590000	40.2063580
18429.4210000	-11.4439610
18297.1370000	-22.4234550
18287.1560000	2.2181664
18175.7300000	17.0079310
18090.3760000	41.1691210
18017.2190000	20.5134590
17950.2340000	47.5438660
17855.6630000	-17.2319780
17722.6700000	34.5615380
17647.6370000	-24.3411430
17608.1780000	-32.8412190
17487.6890000	-41.3628050
17456.1300000	23.7631330
17357.1190000	11.5903250
17264.2320000	-0.0543934
17197.3490000	-5.9729850
17088.1370000	24.1466850
17021.6200000	6.7068333
16956.8070000	-8.2365114
16871.2610000	-28.8435090
16761.0580000	21.3631720
16640.3170000	23.1697540
16649.1370000	24.4367720
16577.0060000	45.7042850
16445.6830000	-18.1015050
16390.2170000	40.4110810
16279.0170000	0.1658317
16218.2020000	10.9541480
16163.3840000	-15.1770440
16064.5080000	-11.0216330
16011.4500000	22.3572780
15939.3160000	28.8789050
15813.3620000	12.2193260
15770.5310000	37.8557020
15671.7260000	7.1512583
15673.6620000	-23.3726490
15545.9340000	-7.8515466
15498.9380000	-53.0440320
15432.2860000	-28.2828920
15306.2390000	14.0162390
15256.2070000	-1.0219383
15209.8740000	8.8129321
15136.3860000	-22.1344610
15019.4810000	53.2329280
14972.8660000	16.3701730
14882.0510000	36.9507590
14844.8020000	-3.2011687
14771.1110000	21.8866640
14665.3310000	32.3122990
14596.2660000	-28.2632070
14589.6840000	31.2275440
14512.5640000	26.1521060
14469.5820000	51.8972600
14363.2490000	-5.3858708
14345.4870000	-8.4148628
14240.3320000	-29.9337180
14152.4520000	-49.1868150
14095.4690000	8.1916753
14041.3760000	5.4592652
13910.6740000	-8.8216143
13884.0340000	-15.6224540
13794.6020000	16.2789200
13718.4830000	-33.0350870
13723.9260000	29.4341580
13612.2450000	13.3485630
13529.6180000	-27.2870250
13489.5300000	-21.1923760
13409.9010000	-42.0359720
13403.9900000	28.3633160
13305.2910000	-29.8965510
13225.8050000	-14.4159790
13191.4610000	33.3942160
13136.4020000	22.4608250
13076.4240000	3.2797691
13034.6870000	-21.2395650
12975.7320000	-23.4447330
12879.7770000	-33.5023170
12849.0870000	-32.4848270
12717.8130000	12.9749210
12704.0480000	-17.8094360
12686.9550000	-12.2406650
12574.1070000	-15.0620790
12499.5380000	8.9648880
12521.8960000	27.7562950
12397.0000000	-26.1296780
12314.4700000	24.3212860
12286.7810000	-19.9086980
12212.7870000	-17.3076130
12171.5700000	-4.7225588
12064.0080000	31.3540820
12039.1780000	22.9790640
11979.7740000	-26.7441960
11975.6200000	-17.6239990
11862.9500000	7.8000634
11854.6070000	40.2742540
11763.3220000	-21.6349220
11751.5240000	-38.7389630
11638.3930000	-8.9016795
11569.5850000	-6.1480325
11575.8340000	-25.6085410
11507.3800000	-11.5785850
11469.9950000	41.0253540
11452.2200000	-6.4348140
11351.0250000	-34.1924800
11311.2880000	13.2342910
11243.1680000	-37.9926260
11205.3530000	-13.5000350
11102.2830000	27.0541040
11109.8660000	-2.7166411
11035.7820000	8.1425300
10953.4740000	19.6224870
10910.6750000	-37.3780540
10853.4510000	21.7759060
10855.8740000	12.6657600
10774.5870000	-11.1763200
10709.5100000	-14.4172820
10642.4390000	0.8289694
10588.2680000	-17.9063660
10599.1540000	41.4725150
10477.2710000	26.8977030
10499.4920000	25.8301410
10447.2300000	43.4217640
10382.0290000	12.7677990
10357.6840000	31.3130050
10252.3090000	39.2342420
10263.3900000	-2.5254256
10220.6170000	-36.2256620
10133.8140000	3.0787710
10060.6290000	3.7738188
10038.4150000	20.8284600
9969.6501000	-10.9512790
9900.6208000	-7.0389336
9881.3460000	25.7786000
9821.8051000	19.3003460
9815.2353000	-7.1026027
9771.8049000	41.8213130
9655.5962000	19.0502010
9664.6917000	13.3740870
9642.9410000	39.2712320
9571.1934000	22.2960100
9549.1070000	32.3622350
9504.6213000	-13.6362400
9449.4011000	3.8279888
9398.0091000	-18.0647380
9366.7824000	-45.6830400
9278.4759000	-6.3018367
9234.2256000	36.6877930
9247.6288000	-11.3095590
9178.8792000	-15.7897930
9104.9971000	6.0355402
9132.0528000	-12.8601850
9039.4806000	-17.8863720
9031.3143000	5.6875236
8990.2588000	-37.4219780
8876.7493000	-39.2733450
8879.3779000	-18.8484220
8778.1589000	-33.3042310
8754.7220000	-21.5507670
8724.8096000	3.5780969
8679.4556000	7.8617456
8686.7826000	-30.9995760
8662.2960000	9.9759038
8588.5409000	-13.9662180
8567.3659000	26.4818170
8541.6188000	-27.2858430
8472.3856000	44.8900780
8443.1101000	12.9960160
8415.6759000	-25.6634890
8354.7745000	28.0249190
8367.6801000	-16.0871350
8271.5051000	-14.3406410
8289.9285000	25.0142630
8171.3280000	18.7067260
8139.8758000	18.1801990
8098.5202000	15.8381720
8094.3262000	-15.1206120
8066.7962000	17.7634560
7960.3967000	13.7944610
7976.7978000	49.4361770
7916.0429000	17.8723150
7885.0950000	-33.9342560
7871.5178000	-0.9539764
7785.3295000	-36.3872080
7797.0779000	-23.0423140
7709.0313000	-7.3417996
7668.2702000	-13.8283370
7704.1941000	-21.5810930
7608.8576000	33.9194040
7581.5920000	-6.6990061
7539.2145000	-11.8914010
7524.9712000	17.3055200
7463.4178000	-55.6180440
7480.0689000	22.5635740
7379.4686000	-0.8105149
7367.3595000	-27.8793120
7314.0462000	-7.5112901
7316.7914000	-16.4327080
7245.5673000	-13.0631830
7248.3955000	-33.3110170
7181.3779000	-2.5385972
7145.5896000	6.3849009
7116.0415000	-34.6301270
7068.1889000	-17.8272980
7029.3721000	-27.3394270
7028.4688000	20.7881730
6971.7370000	-30.9798710
6960.3453000	23.4143800
6958.2215000	-21.0941150
6885.1380000	51.8139910
6919.1789000	51.6195670
6829.7285000	32.3975370
6792.3709000	-4.1909530
6774.2354000	-16.4815030
6749.5297000	34.5631350
6692.0761000	27.4354620
6720.0436000	-30.9977290
6647.3765000	11.9651880
6636.6308000	-11.4357210
6577.9230000	-3.5754103
6599.7603000	11.9541470
6583.8294000	-26.3660220
6518.2104000	-32.8261550
6468.5926000	28.0164000
6458.7506000	29.9613580
6397.4098000	6.8906426
6419.4534000	-5.1093821
6330.1989000	-11.4317100
6311.8495000	-4.1477492
6343.8016000	4.4139111
6314.7015000	-14.1631360
6228.3619000	-52.4560590
6219.8711000	21.0582400
6172.2356000	-33.1188710
6167.3470000	0.8704222
6067.1178000	18.2581310
6040.6149000	43.4118840
6050.8232000	3.9307300
6023.5079000	-13.6630650
6048.7849000	-26.4452640
5990.2268000	16.7815920
5989.3180000	26.0662260
5908.7924000	7.2212299
5851.2996000	-56.0021820
5824.6470000	-39.5922560
5852.2768000	27.9381640
5812.3095000	15.7532050
5770.7340000	41.2401720
5750.7107000	5.5719505
5715.6742000	-6.1275096
5737.3637000	4.9643333
5637.0279000	19.9113690
5678.1423000	-35.6487330
5579.2411000	28.8062130
5569.3641000	-36.3688490
5523.0270000	-32.8943110
5559.1100000	4.7708415
5495.8840000	29.8073560
5519.9564000	-23.8372860
5438.9398000	43.5603090
5445.0682000	-41.6793540
5422.5538000	-22.3504850
5352.2688000	28.5214570
5350.1369000	34.4025240
5367.6126000	-20.1147390
5276.9927000	28.2021140
5252.3618000	-3.1058558
5255.2422000	-23.7524860
5256.1953000	41.1634660
5252.7455000	27.2763170
5186.5787000	-25.5248670
5178.8810000	21.7073120
5090.5376000	-18.2640200
5061.8329000	32.3498580
5042.7080000	32.8002990
5087.8976000	37.0954160
5065.9151000	-7.0737730
4976.2778000	34.4134850
5038.3131000	33.1253100
5007.6223000	-23.3206960
4951.4952000	-33.2332360
4962.4488000	-17.3154200
4940.0593000	-35.7327080
4900.0592000	-13.9840600
4851.1083000	-11.5097670
4804.5866000	33.1696560
4828.4338000	-9.2334409
4758.1142000	34.6407350
4749.9449000	15.5395570
4762.2506000	-18.2256820
4698.5483000	16.5476920
4719.8131000	-40.4406800
4683.3970000	5.5043794
4620.8487000	-21.6578950
4654.2248000	3.1140384
4618.0044000	15.9696050
4588.7761000	-3.4844449
4569.8181000	3.7109270
4526.9206000	-9.5510391
4505.3872000	-38.5589330
4476.4362000	10.7380350
4465.1478000	-0.9617649
4433.4292000	37.3794980
4406.8978000	23.8108800
4421.1744000	16.4027230
4367.0333000	-27.9076200
4381.5514000	5.7827469
4333.8483000	-33.4799810
4307.8014000	15.4581300
4355.3627000	2.2448854
4323.1554000	-23.6728490
4268.6786000	12.7164210
4218.0804000	-8.3359858
4196.2001000	23.4335310
4206.7814000	-23.7132700
4199.4583000	-36.4904770
4168.9855000	7.2280262
4137.0203000	47.7966860
4159.3813000	-18.6843960
4101.4739000	8.7780923
4106.5694000	-30.8648120
4078.9596000	-5.9808661
4081.3322000	16.0448840
4077.3346000	31.9427710
3996.3248000	-25.8300850
3975.7589000	-34.1711930
3960.7518000	-34.8031790
4009.7485000	40.6396930
3981.7823000	-10.8831660
3960.9306000	15.4422740
3930.3507000	30.2144590
3902.2365000	-39.3638960
3885.6671000	-39.5635200
3817.9328000	14.5324800
3847.8264000	-22.2864760
3806.8698000	-20.7921150
3760.0566000	-26.4381560
3803.5140000	-33.1345170
3783.7433000	-28.7387450
3727.2394000	23.6597020
3768.7940000	-32.6058160
3747.0863000	-36.7497370
3732.2734000	6.4297989
3678.5725000	39.7000940
3671.0342000	-6.9516835
3656.4514000	32.5025600
3591.7967000	-24.9456780
3624.3950000	-9.1491559
3639.4409000	-7.5731538
3597.1656000	-18.4618000
3523.9546000	31.0654420
3514.1761000	-21.9749120
3508.2208000	37.5045250
3483.7222000	18.6892160
3490.6010000	-42.1413450
3515.0093000	-5.9854073
3418.3049000	35.6349270
3473.1688000	12.5649610
3435.2391000	26.5625520
3397.1336000	-18.4424350
3393.4121000	-12.5962880
3409.4106000	2.8591189
3340.2695000	10.8171030
3369.0895000	-14.8828880
3317.7264000	-29.5241840
3329.8142000	17.9157770
3273.1476000	12.0091710
3270.6678000	20.4425740
3240.9731000	-35.9501700
3264.9054000	-41.7625830
3194.3460000	10.3350580
3263.3896000	-0.5892935
3172.2859000	19.9776310
3174.4637000	10.0011230
3220.5914000	-4.0656798
3196.0862000	-7.4501402
3154.3418000	5.8073751
3105.6104000	13.3433960
3125.5626000	-12.2154140
3134.9630000	1.9641701
3113.7218000	18.1932560
3096.5857000	-35.2877150
3049.5211000	4.5503268
3042.4368000	-32.8960930
3047.7242000	-22.2212850
3033.0621000	-25.3045610
3041.7109000	10.9385820
3000.2902000	23.9285540
3013.4220000	-17.7095840
2964.3191000	-22.9547980
2938.2552000	33.5800510
2891.8208000	-15.5134330
2924.2362000	-6.1631899
2949.7913000	20.2922990
2872.5901000	1.7061388
2919.1451000	-29.4645420
2904.9369000	-20.4240230
2836.3451000	23.9878830
2865.3786000	0.1462268
2829.5747000	4.6067571
2818.1175000	-27.3789350
2822.6771000	26.7443150
2798.4901000	42.2275590
2775.9371000	-28.2296440
2731.5989000	-5.2134779
2790.4670000	9.2931403
2708.3355000	-19.5144570
2716.7521000	19.6917700
2727.0480000	-39.5331310
2723.0253000	-32.3632960
2660.6380000	-6.9618525
2636.2384000	11.0196830
2670.5566000	24.7893780
2654.6208000	-36.4393920
2674.3002000	-18.6473900
2613.6619000	7.7254327
2610.6026000	-25.4009820
2578.8319000	3.3074261
2582.0302000	24.1711950
2605.7028000	34.5451500
2555.3669000	15.8240610
2558.9993000	35.0343660
2495.4840000	14.0465050
2508.1491000	32.1099100
2532.2476000	9.9976062
2490.4604000	-10.3681170
2472.6235000	-30.7373910
2441.1365000	28.5182050
2466.8438000	-4.5723941
2415.3513000	40.2848610
2458.9240000	-34.7363720
2444.5554000	-2.1728403
2436.2113000	-20.4935200
2397.0438000	40.3446290
2387.8192000	40.6225120
2426.1126000	39.8018470
2399.7474000	-10.5886370
2385.4597000	-32.7647490
2360.2204000	-4.4115742
2362.7856000	9.6498900
2344.6831000	33.5391380
2291.9947000	-24.7557510
2267.2701000	31.6223760
2324.3426000	-29.4179690
2262.0764000	-40.1293070
2319.6218000	-44.1289060
2234.5512000	30.5372420
2222.9338000	-35.2711530
2263.6607000	-22.4976420
2235.5602000	-26.8141980
2221.7187000	-17.4125790
2200.9159000	42.5618060
2184.0316000	-30.0924700
2212.6185000	2.5460480
2177.3792000	25.3966300
2181.8458000	19.2398190
2188.2110000	39.9241610
2116.1812000	-17.4794940
2114.2923000	-28.2099760
2099.1140000	-14.3008740
2129.3732000	33.0658850
2102.4754000	-13.4917870
2123.9986000	23.0106630
2075.0432000	37.1390790
2079.0569000	-0.8397875
2060.1901000	20.9920990
2021.6196000	6.3488240
2020.3359000	2.3277959
2055.6171000	-17.2623370
2023.1603000	0.1984249
1981.1458000	-43.1445380
2020.4301000	-36.9266650
1977.5531000	-42.1683920
1954.2518000	5.1879108
1997.1169000	38.8991010
2013.9304000	6.7926703
1936.6074000	-21.5313800
1990.6694000	7.3531574
1974.3076000	20.4501210
1923.2082000	-0.6660405
1948.5050000	12.3707860
1958.1639000	20.0599550
1902.5348000	22.0088440
1941.5226000	-23.5754540
1926.3751000	2.6466856
1895.2055000	-31.0703120
1887.0450000	-18.0822970
1825.9287000	24.6105100
1854.7487000	27.4895000
1844.0066000	29.3344320
1828.0304000	-42.3142900
1816.8744000	-30.3211630
1857.7453000	-11.7241730
1808.0746000	39.9544550
1801.4514000	13.3268050
1811.2129000	-22.8604510
1778.0228000	-27.2128470
1802.3797000	-31.1924690
1789.2119000	-19.4742230
1770.2109000	9.3247084
1732.3129000	17.0239010
1733.0930000	-3.5406508
1773.2832000	23.3381590
1715.6525000	-33.9154840
1747.7932000	21.9226320
1717.9202000	12.0697080
1708.8201000	-24.9403120
1701.5046000	16.8283400
1708.4050000	2.2403389
1645.6302000	6.5587818
1716.9820000	-6.4263120
1681.8673000	34.5186570
1700.2806000	9.5920272
1612.1786000	28.1496410
1676.6253000	-44.1980280
1617.7131000	14.4046820
1605.7425000	33.9597970
1618.6239000	-15.9243920
1593.9872000	-5.2033203
1614.1871000	1.8217384
1569.6703000	18.7367930
1577.2786000	-10.7052540
1565.6310000	-5.3518903
1536.5313000	43.6441770
1567.1916000	-35.4333050
1575.4099000	-19.8383190
1554.5582000	2.0437106
1535.1909000	27.0563260
1518.5516000	-39.2225720
1551.1584000	13.5184690
1505.9738000	31.8475460
1486.6857000	22.1300200
1533.2184000	32.9834910
1466.4374000	13.1011570
1496.6706000	35.4457630
1480.9532000	-23.0904940
1485.5143000	-5.0806129
1468.6201000	-35.0951590
1438.2568000	-18.5631460
1458.0709000	-0.2646939
1413.7519000	25.4242550
1436.4961000	-36.1077920
1437.4310000	-22.4273730
1407.2695000	-41.3799090
1467.3004000	7.7549929
1420.0216000	0.4397850
1396.8837000	11.6603220
1375.9264000	27.9271880
1368.9044000	9.8487757
1424.5051000	-20.1990580
1395.6568000	-40.5900580
1347.6063000	-5.8413619
1365.5034000	5.8611096
1408.8147000	-30.6384570
1391.4765000	10.0675280
1344.9910000	-35.6337400
1311.8853000	-2.8512647
1359.8053000	28.0391310
1301.8817000	21.6122120
1304.6871000	41.3209060
1353.1013000	-40.1055010
1335.2699000	-42.4177750
1330.7970000	11.5365920
1313.9391000	-11.0378600
1316.1784000	-25.6302450
1281.7912000	23.7280980
1310.6725000	-38.3165900
1288.3158000	0.2247413
1267.8229000	8.3185965
1265.7144000	-31.5785110
1237.8178000	-3.4456711
1277.7269000	21.4011700
1243.4489000	-19.6409590
1263.3016000	17.4162860
1252.1284000	34.9241240
1263.3693000	13.8714230
1234.6135000	20.8152660
1228.2146000	-18.6338880
1181.5943000	29.7809570
1221.4166000	-32.0685050
1165.5827000	-37.7583650
1199.4300000	25.7919080
1216.7704000	-6.4254399
1158.5422000	22.9145070
1207.2883000	29.8171530
1178.5041000	20.6015710
1200.7333000	-41.9016740
1192.9840000	-5.6404878
1152.2127000	-34.8749440
1184.0349000	19.9911200
1122.6008000	36.3634540
1176.1078000	-20.6833490
1163.4003000	-17.7157820
1142.9822000	-29.0333810
1101.8863000	-22.2083980
1089.4095000	-29.5558920
1150.6015000	12.4483060
1107.3160000	26.8678350
1074.1529000	-3.7037165
1064.2065000	2.5598796
1073.4295000	-8.9478111
1072.1806000	-12.1962540
1128.8506000	13.0220370
1055.8966000	39.0601230
1063.9564000	-21.9435560
1056.3685000	16.6197470
1038.7183000	27.6330740
1084.9311000	-42.6355520
1029.3202000	-6.4546873
1091.1257000	3.1072694
1032.3097000	-32.7027510
1061.8430000	-23.4519080
1053.6787000	-10.6482210
1007.6754000	30.3152890
1007.7326000	31.3968260
1032.4279000	18.6308770
1043.1113000	33.9280960
1008.0035000	-2.7778321
989.7878500	32.6795880
1042.5401000	-13.0633220
1028.1064000	-19.7253400
959.8876900	6.3219494
989.5729500	-1.3310636
956.0938800	27.2536670
986.5659100	-29.0072770
1006.2924000	29.3820690
927.1064200	8.9914296
946.4266700	2.2875283
956.8051700	23.9207970
917.5174200	17.9546170
980.7516400	-11.1206920
945.1553100	-7.3664373
899.6884600	-5.0460096
933.1975700	-41.5616150
904.0407300	13.8007880
887.6260800	-18.5978320
896.1058600	10.4981080
897.3535800	-24.6840100
952.2514300	9.6480870
884.9948400	3.5454335
882.5875900	-7.8467995
936.1096700	-16.9478730
862.4264600	33.6303040
903.6609700	-36.8250630
881.6521600	1.8954738
852.3161700	-9.0806499
888.8893200	-4.6023110
877.6650200	29.7687170
903.9384400	-22.1164360
884.0295000	16.9394250
891.0242100	36.0443530
890.7859900	-13.2402940
886.1918800	-16.3101910
847.9180500	-18.9309560
887.4598100	-15.7544040
816.1400600	19.7388960
817.9152800	23.9065090
870.4473300	14.7363170
806.6209400	12.6545680
797.4571600	0.3415333
793.5624300	-29.1842610
846.2639500	42.8918120
828.5658300	44.7759660
845.8394200	16.0378540
849.2580300	-26.1085610
802.1175900	-32.5130760
795.6798200	36.8219610
817.2970800	-3.6952421
752.0705300	-41.5133110
794.6413300	-11.5602420
821.9777100	-37.8602790
752.5291800	33.7191650
823.9801000	31.0163350
735.6478800	-13.5809240
744.0048100	-16.9191380
735.6341300	36.9582020
743.3849100	7.1137779
723.2772100	22.9783740
750.7770100	-20.7917470
755.3079500	-14.8346530
710.7653900	-11.2679610
732.6119600	-27.5863980
754.2131600	21.4983440
774.4722200	26.9824520
775.4471800	-31.4898430
766.4079000	-11.0656050
743.0375800	-4.6103256
718.0291100	-18.2950870
688.0109500	11.9971690
707.5927100	34.7768220
716.3554500	-41.4330970
680.0610900	-26.2290190
686.2298600	22.3996980
689.2905600	-9.0740588
673.6409800	-4.4544324
670.9228900	-31.4497700
716.2358900	9.6605142
661.4885600	-40.3997170
667.5096500	24.9280120
717.7871600	-2.8523176
641.2718500	-16.3292400
662.3978600	-38.1629100
696.1491900	-33.4225040
698.8241000	-31.5892360
642.0799100	34.1455560
645.6459100	-11.9201460
653.1333300	-37.1202030
619.2303300	-12.9275190
671.9575000	22.0824430
694.3687500	13.2458580
621.5416800	40.8658170
656.2016200	18.5476690
610.0448400	11.0432390
670.0828500	31.3740840
651.9403200	12.2719940
674.3034900	-32.4534360
647.8083000	-35.0660930
651.3823000	-42.8903620
643.0142100	3.9799364
598.2258100	-21.8887660
610.3376300	21.2110690
597.8736700	8.0605802
632.5975900	-15.0165770
621.4274900	-4.7741055
629.3328100	-37.3682140
578.4934400	31.5894070
587.8063000	-23.1598480
598.3406000	-30.3605610
631.3834500	-2.7932777
573.2824200	8.5410622
602.8931800	22.7083670
607.3844500	28.1935100
617.2256400	42.2620780
583.5041400	-36.3795710
565.4457200	17.6582730
581.6514700	-15.2266850
550.6593600	-13.5607500
585.2021100	2.2418475
589.7867900	32.2799430
536.8261300	30.5697840
579.2503800	41.9462770
595.9113000	-21.6611770
590.9959200	-9.5104554
597.1372700	33.4055080
575.8137400	17.7070460
524.6681400	-40.4399250
546.7795100	21.7461040
511.7175800	17.2112610
542.9432900	25.6258770
521.4411800	-24.5838610
544.3289200	-20.3044930
539.5695600	-29.5363530
558.7685200	-43.3530260
518.2211000	20.3897020
525.6107300	-6.1599612
494.9674500	3.3383590
546.2434700	-28.1462720
519.1870000	-5.9882632
512.7541900	17.5028480
556.2000900	-12.8235040
505.6667500	17.6890180
521.6790400	27.3801180
532.8578900	-42.5668960
475.8965100	19.1299510
491.8226400	-40.7314930
467.6108300	19.3313340
501.2416200	14.0301410
532.5356600	-38.0828890
537.3682300	-3.1960352
490.8052200	-27.3638970
495.5311600	26.9238020
514.4356600	-26.4102690
450.4894800	-40.7298240
489.4631500	0.2248317
508.8876500	-17.7256750
502.6202500	-37.4889720
507.7333800	35.3843660
480.6222900	40.4907630
475.8018700	-15.9300010
468.8511900	18.9504600
488.7228900	22.5677800
502.4454200	-32.7160900
423.7849200	-6.9997974
425.8751500	-12.4149210
471.4338100	19.5292300
476.3931000	-15.6451410
445.4855800	-12.9235820
488.9788700	37.0703680
424.1032800	30.3119590
423.0187500	-41.4379520
407.2012700	22.0512060
434.4501200	39.6323460
405.3681400	-11.4958300
404.0283800	-33.9188500
473.1208100	12.2846930
429.7369000	38.5036440
420.3114500	8.7188104
471.6584000	-3.6847869
393.2699000	23.5511320
411.5494800	-15.4203760
458.7299500	-41.5001880
425.9675100	22.6064890
416.0458800	-15.6752630
390.6749100	-22.9187720
438.2782200	36.6935700
405.9727700	15.3567950
437.8900200	27.2458330
400.5782300	24.8472850
403.5687700	39.7065370
401.8183900	24.5708980
446.0191900	12.3887050
443.2294200	4.4310813
372.4201100	-25.9668770
418.2624900	20.9024970
434.9479500	-17.3947350
418.0130300	1.3054909
408.2547000	-11.7955940
361.8630500	-35.3725280
377.9613300	-0.9211004
391.7522600	2.9079522
403.1103100	6.9957795
399.9317700	40.1671820
355.6572100	-30.6782410
410.1262900	31.3398450
399.4457700	4.8814190
362.6482800	24.8095890
338.0798200	-36.2988080
367.8038500	6.0657708
376.9349800	-40.3526780
351.7454300	-18.8591910
354.5011500	34.2416590
362.8584100	-12.7946290
403.4458600	16.5461130
324.9603100	-10.8487580
350.5389300	0.1695717
340.4672000	39.8403020
366.5357300	6.8828011
372.4461600	28.4256800
328.3577900	37.0288800
329.0485400	6.7321974
360.6721400	24.8559020
309.7379500	0.6501843
386.6066800	-39.0836570
365.3581900	30.3687330
379.1105100	-33.0191370
314.7399700	-20.4825200
378.7681200	-31.9220550
327.7449900	4.4196957
316.1392200	3.2558456
341.5550200	-6.9098010
369.3029400	-35.0113290
322.4077800	-14.8782260
310.6768700	3.6389042
369.2516500	10.1731230
291.2596800	-41.0094090
364.3866300	40.6471660
365.2120800	17.4285710
306.3340500	22.8067390
289.0510900	-20.7785910
294.7024600	19.4039310
363.4885700	28.6105220
284.0569400	-33.9492800
305.6970500	30.0010190
330.1572000	-1.6320329
273.0124100	-25.6280610
327.1671100	-24.6007400
301.9948800	-9.5282045
288.8492400	-38.3215530
300.9745600	-27.9914350
308.3364400	-26.7168870
278.0367800	10.2355560
307.4149000	25.3464200
290.7305600	31.6797840
261.0966800	36.5252820
315.7945300	19.4424780
293.1950700	-20.6215660
258.3322900	-2.1085699
274.6767400	3.3858543
316.1489500	-8.6124647
333.5976100	20.1749480
306.2489700	5.3582674
249.1632900	18.1066210
297.0183800	42.8763600
260.1127300	17.9575090
267.0598200	-3.4438798
302.4922500	-41.3059150
301.7129000	-33.4534970
295.9926600	20.6121970
294.3359800	40.9649630
297.2015900	-12.5567160
296.5998600	-29.8735090
262.5934200	-31.5187400
261.1152400	19.6127330
259.3675800	14.8192630
300.6564700	11.5323950
251.5333900	16.7415760
314.4039200	-42.3843110
235.5236000	37.8244890
309.8108500	5.4139121
247.6545500	-11.8721370
286.3259200	-34.2572620
231.6611500	-10.3638070
221.7935300	19.9331140
257.6347600	4.2539344
283.3170400	10.4128140
303.1031500	13.0328980
301.2083900	-35.4859470
298.0646600	-2.1488712
238.1164100	-23.1704060
235.2487000	1.7281275
222.5405800	8.9353069
229.8463700	-38.8098310
231.8075800	-2.4838164
255.9301600	-8.1257039
229.8465600	-37.1567740
290.2581900	-31.5490320
207.1835800	7.0734292
267.5332500	-40.7963840
220.9189100	-29.9771320
273.2500200	-23.3426410
213.5302700	-25.2374270
275.1977400	16.4670380
282.0854000	34.8408070
221.5721100	4.8731367
263.1644800	0.0688514
247.3844500	38.0558160
204.7459700	-20.5856570
247.8535000	4.9471263
247.7900000	30.3950520
232.5848300	-5.6199408
265.9257200	-8.2814147
249.8030900	-41.5195510
258.8309400	41.4803170
262.6664400	-18.3262410
235.1389800	7.0097943
250.6294500	34.3387390
222.4048300	-29.7587120
245.4759200	9.0214783
222.7970400	-22.6022770
250.8313900	-5.7130375
189.9050400	-41.9968300
241.1655400	34.9983090
242.9924500	-3.5070331
182.1049600	-40.9410280
257.6740300	2.9008502
242.9448500	15.8137520
232.0346300	-24.6082030
215.4223800	9.2621682
200.3171800	-28.0427930
190.2082300	37.4387840
227.5458100	-30.1210920
166.6890400	-9.4893153
165.7570300	-21.1931740
183.7157200	-30.4480470
233.6677200	-10.0021320
167.5594600	32.5126160
221.0965300	-21.4117240
218.2513700	-41.1321860
180.6587200	-21.4989790
214.0500600	-25.8395810
223.2550300	27.4411820
220.7522100	37.3478920
189.7183200	-14.9477780
210.3747200	-22.3436990
232.2755200	27.9988200
212.1039500	23.0153470
183.7861100	-17.0194450
201.3047100	-41.3395320
188.7951800	8.1609355
183.9003400	-18.9372440
211.0004800	7.0712044
223.1795300	-25.8239720
166.8038700	16.4458870
205.5734300	2.9674963
225.9539600	7.3822960
211.4415000	29.3485690
216.8171800	-33.1682220
227.7843300	29.5581930
178.5090500	-4.6045671
195.0371700	7.2407767
147.1667100	-25.3166540
188.2814400	0.8603667
195.0187600	35.6766210
145.1228400	-22.2043850
159.6067400	2.0376020
143.8269600	10.5676280
189.7449300	-11.1779050
190.6621500	15.8197140
201.6223100	-27.8060680
204.5465100	-6.6351130
213.3569100	28.4958690
201.5317200	-35.2333730
191.3609500	25.1927700
173.2596700	-19.6505100
213.7542700	-23.9738930
206.9993600	15.2236140
203.7369600	-29.6694780
211.2098700	-6.9481156
210.3893400	-31.6725000
127.7069200	0.3736306
132.2112200	30.1732870
191.3570100	-15.6785400
200.8162100	42.0689150
205.2724800	31.2856420
124.9298800	33.5868140
153.3901300	-7.5621213
130.4473400	7.5810437
161.3601300	-38.1049380
152.4662300	-31.3129390
173.5247400	-7.5677231
164.9774500	3.9302585
146.2956700	7.6428644
146.8309800	16.1834090
155.3932900	35.1111730
187.4476200	-36.2473590
164.2554500	-24.2320900
158.4416600	22.0361330
161.3093800	-37.5948970
124.9684800	-28.8478600
116.8489000	-31.6640840
170.4877400	-14.8082470
191.2249600	-33.8214270
182.4304300	-2.7132443
143.1187400	-21.5699540
112.7228800	-30.6160220
182.8083900	2.1788516
124.2667700	38.7548130
187.0069000	34.0863370
146.5364600	36.8318430
103.6358800	22.3734980
121.0012700	0.1242884
127.7010200	0.3644444
115.5306000	-8.4193049
175.9901600	-21.5430090
161.3218900	20.1561190
164.6278100	16.2793090
125.8902200	7.1396742
142.1734400	-27.6368570
175.0576900	23.3469230
128.6148900	41.9211230
175.5220400	35.3430310
120.9249000	-35.7940890
157.4780600	-22.3193180
176.7451500	18.9236620
173.3759200	35.1463790
174.4060500	5.0389713
105.3917300	35.6919060
94.0354550	-14.4313940
169.1049800	19.1634700
170.0624300	-39.7244580
147.3639400	-35.0703900
167.7159500	-24.9609020
120.5944800	37.9253520
97.2176350	22.3865460
104.3217300	-12.4955930
113.5562800	30.0583780
114.1185600	0.1757470
108.2423800	-27.9653340
95.2727990	-40.1740560
146.0140100	13.8377010
134.6562900	-37.1354180
103.4208900	-34.2915580
163.9573200	-2.2975344
88.7576030	12.8129350
164.2540700	-42.5333890
124.8874600	20.7277140
119.0827000	20.0962200
114.7155200	-19.7240140
87.9462260	6.5447012
96.7513850	20.2990800
124.9813400	-33.3271830
142.4315200	7.7772028
147.3222900	-40.8986340
155.4628300	-32.1577290
120.6093200	-28.9555360
111.2738200	42.2455260
155.5721600	16.4439660
107.8303500	-41.7887830
127.6617100	24.0919760
106.3790400	41.8332600
100.5925500	-35.8102840
94.9195450	-17.8729570
88.1097170	36.1462360
78.9382120	35.2560620
109.1307500	-15.7332300
142.8222400	-35.1378780
126.0621800	39.6898910
105.6060600	26.7190000
108.0323300	14.4100830
66.8801160	-26.2608220
103.7840600	-40.6783690
91.4529060	39.5587670
66.5481940	14.4244020
80.8171600	-42.2897730
85.4787200	-11.8528520
120.6313100	17.7264300
123.6717400	35.4850640
122.6061100	41.8823180
86.0786690	27.2361770
80.9977000	14.0493420
68.1243350	31.7055520
85.7908420	36.7042580
63.5743620	-13.8985490
109.6255000	3.7292271
127.4181900	-20.7374710
118.1518300	-20.3548280
98.9143900	-41.9238520
97.5707500	13.8318490
91.6402740	-41.0205970
75.9308280	15.1972030
118.6790200	-12.2331270
86.6688580	-30.1439930
108.3678800	3.3721582
120.3237100	-40.1908910
62.9791510	-38.7101280
100.7454300	23.3291030
96.2764020	27.1422450
119.1253000	-22.1160320
69.2327790	18.7000210
64.1664110	16.1529570
66.7517330	-42.5483870
118.2332600	-18.0969290
104.0071300	12.9696290
76.9676480	32.1333620
81.7870720	41.0760590
95.0143120	20.8633250
111.9110300	-5.1769188
114.1089900	30.2178360
91.9690120	31.6784150
129.0740800	37.5674520
115.7131300	2.3932698
129.4001100	-10.5505440
94.1077050	3.6300149
119.7271200	-29.6798200
120.4628100	-37.7404930
82.1074920	-3.8651473
120.6943300	-14.5697440
95.7222530	-24.8651220
129.3827600	2.8970404
91.7853740	24.2720790
82.3860830	-31.6659050
111.6308300	-20.0509550
120.3119300	-24.3395690
93.9806530	-22.1017920
93.7588070	-26.8558750
108.2349100	16.0200320
77.7031000	-5.0957541
68.1137840	2.2851295
72.4317160	15.6283670
93.7699040	-16.2389700
101.8477700	-28.9514320
88.6487550	27.1385910
79.5788960	10.0957960
113.2508000	-11.0492730
79.7168980	-14.7947820
37.9171570	-37.2017730
104.9432300	-41.6832610
86.2381800	0.3523101
55.4592130	-40.7048580
113.3634100	39.9230230
93.8393880	-7.2995629
40.5344610	-21.5309900
106.6600300	14.0918830
91.7348900	10.2651460
76.1045660	-13.6827930
40.5683390	12.4748610
55.8206440	21.9737070
118.2515300	21.9730880
80.9984780	-8.1603222
72.9215700	2.6797364
96.3097600	3.4560979
97.8584980	2.8041800
76.3093820	-33.2770850
75.3874230	0.5812732
65.8951270	-38.5547260
59.1176400	-4.7674430
42.2575380	15.6623880
41.7132220	19.8037020
39.4007880	-4.5853566
51.8953310	-19.1755050
110.4262500	-15.0833990
81.6817050	27.0498890
44.1784730	37.9554110
75.4699720	23.4970750
89.3315680	-42.2222690
35.0949370	-40.7559200
63.2073140	-38.3349610
102.1977200	-4.3627696
28.2640890	16.3962950
28.5110870	9.5546535
75.8261480	-25.5590050
31.1409460	-41.1761080
38.2619330	13.4085330
24.8250670	31.8545800
78.4310730	41.4844950
95.3681150	-17.4640760
47.2729460	-1.1406431
90.2228150	34.6562270
63.3381990	-42.7750610
24.0831540	-22.2487450
58.3480480	30.1287490
44.4949450	5.4217087
52.1166090	13.6265890
57.4694850	42.5503900
23.9945490	22.9926520
51.3362330	-6.5791638
22.5498530	15.8966460
75.9453210	-24.6140650
99.8172130	-24.3416840
88.1057300	-20.1578680
103.0287500	-24.8895390
88.6003020	-41.4529990
96.9919100	12.7028570
44.7692460	-37.2359410
55.6031490	14.5495030
51.0272430	-12.6254680
89.4729550	-35.6404300
80.2270970	-32.3414730
22.1340330	22.0094290
93.3812860	-7.9647011
98.9187050	10.2693510
89.5381130	26.8552980
98.6249560	23.5663100
78.1177120	-7.5336500
34.2615680	20.7650620
99.9902030	11.8353420
69.3113960	19.0409110
46.6313160	-19.2551010
70.4010850	16.5781160
82.4369420	17.6018540
62.4010130	42.3884440
75.3466440	-0.9419655
71.1760610	36.0189910
71.6264470	9.2514907
91.0090900	-16.4449210
72.4366790	-41.3103820
25.2026490	13.7417460
47.1603870	21.7321480
76.4408550	-9.9868086
48.0822320	-2.5607774
64.0146540	27.8763410
14.4315260	-41.7643760
58.8559610	-31.2193640
36.1097460	-3.6812962
53.0541070	-25.1402020
13.2854850	20.5728890
57.4892780	2.8113770
47.9050570	-5.5397683
59.4411650	-18.9281060
63.3255000	6.6984584
12.8787190	18.6446760
48.7715690	17.9542120
36.0424990	-26.1687710
57.3544200	3.4235824
68.1224510	26.4273250
35.5462600	-26.8114040
24.3193250	-37.6881550
11.4106000	-32.2976080
78.0649820	26.3866240
60.5489860	-27.7404000
57.6554600	-22.7257130
54.5839270	-21.3589970
57.0916920	8.0460289
43.3919070	-13.7150780
43.9645380	-33.6075480
74.9091920	4.2593314
10.1605430	-4.4073167
17.5517100	14.2220080
38.8816040	-38.8638520
76.0340550	-6.6335686
60.0037780	-24.7203580
53.3423770	-6.7406644
87.9821690	-31.7868210
31.0940430	-15.0597450
23.5456600	15.4687790
83.2884100	-16.5348930
87.6169510	28.5884120
83.6941230	29.1175460
18.9017580	-39.9399480
46.5143160	34.8906010
32.9760790	-29.3304980
23.5023770	2.3426839
77.0167010	-40.6763980
81.0257290	24.5444860
35.2770400	25.8047900
26.1206860	20.5567230
23.7569790	19.6092230
33.9576950	19.7738770
69.4835950	11.5087500
11.3761050	16.0498810
48.9268700	25.5605620
15.7278410	12.8548700
16.2178150	6.9395373
78.9941320	-38.0045450
56.3318180	-40.0369370
48.7701000	-17.5921220
44.3627250	-7.7441283
23.8866610	41.7048790
20.1193980	-3.9569751
35.4617810	24.7501330
-1.9580610	-3.5287204
34.7693150	31.1866810
33.1414680	27.7150810
36.6737880	-38.1513400
21.2789960	-13.8660470
21.7182400	-23.1781600
37.3157190	37.3708970
72.5916580	26.9925470
77.3935910	-39.6997920
62.7403230	-1.4513666
12.0000900	-18.5288750
48.6259250	37.3043640
48.9099480	-38.9098650
0.5672618	41.3246110
41.8086530	34.4222750
20.8303030	-42.5611920
35.4178810	-41.2695630
8.9417414	17.6111670
76.9660370	23.1617470
15.9968460	-2.9942900
33.4888810	-9.9647833
28.4914720	5.5809122
29.4312540	24.3198170
5.8082107	25.0200450
41.5260430	-14.8586340
24.6562870	14.9364310
23.2081160	10.8465870
41.8010820	16.0884860
-4.4452511	-17.1664250
51.3735950	38.8864850
49.5933970	-3.6357982
14.7913530	30.9623750
24.6629890	14.3660320
36.4836900	21.2153790
73.7526410	-30.7009660
22.8612850	-25.5728440
61.8409140	32.2053230
54.9304190	-33.0495060
29.9124240	-4.5818089
64.3840590	41.6877940
-5.8558198	29.9865210
-8.5197141	-22.9070450
64.4443440	-13.4181280
37.8316110	-11.8721390
29.5739510	-38.8215850
46.5624200	26.4941970
41.4317080	3.2647970
-8.2421150	-33.8098900
9.1191949	23.5764850
42.8135030	20.4259100
-5.0735271	26.2992360
6.8376462	5.2306976
-0.2457110	2.6698086
-8.6195360	27.1662740
27.5807810	27.4192710
12.6004400	-3.3049933
61.1885600	37.2730130
20.9291810	-37.1809330
50.4480440	-1.5993412
43.5211320	-35.0020840
16.2913690	30.2787790
24.9509920	-3.4259647
45.7952310	21.1389040
46.5809960	34.5392280
-0.1657113	18.8947240
53.5260500	0.8575820
15.0296300	-37.0387130
64.3197560	16.9092990
-11.7449030	-8.8920423
18.4832740	-33.9892110
55.4113360	-2.2750630
37.4283180	-4.0225293
22.1431980	-4.3503678
32.3279090	39.2405950
-13.5425450	-9.9467369
41.4201820	-18.6409970
50.4916540	-26.7419650
40.8537510	20.8197140
48.8600100	-2.4451746
39.4210960	10.5711770
70.0992930	21.1160400
35.1616810	-36.8340970
-9.6071533	-14.4368000
65.6060670	4.1576361
22.2392950	-40.0631510
-5.8642294	22.5036240
4.5773620	-30.3908160
63.5296650	-0.6515822
5.6794038	-12.3713900
50.5448990	-5.7627356
29.3860430	24.0122290
45.3717880	-19.0748370
8.3542794	18.9257520
11.5294380	41.3387720
58.0689490	-6.0657739
55.9253070	-18.7899190
14.0274200	-11.3642780
43.0988200	1.8204568
48.8103790	-16.1451160
9.0948551	-10.4945400
-0.0695282	20.1227630
67.0823020	2.4292911
29.1620340	-15.6681170
-4.5425357	31.4861500
-16.1101400	16.5779500
-6.1335236	36.7650120
-9.3194765	-25.4159830
57.5340440	28.2714230
66.0891420	-32.5492700
40.2546770	18.6512230
53.5285840	-1.5754886
25.1401730	-21.5555530
-6.1548091	16.1917370
55.6005230	-18.9348860
53.4485580	-26.8422460
13.6556170	-39.1013840
18.8025830	30.5878300
64.5571390	-16.5389340
10.6739850	-41.3096820
-2.0848383	30.2130540
-8.6135745	39.4412910
52.1253570	-9.8729683
53.2447720	-29.7574050
19.3955590	10.9967400
-5.3835634	3.7893873
4.0277109	39.9400380
-8.0155319	-26.7148270
39.8462490	16.3503780
23.5054460	-37.2567070
43.1221820	-8.6596800
11.9003700	13.1507080
24.7351000	22.4978020
31.6428920	8.7930366
36.1677480	24.4848690
2.0054219	-15.1267900
29.5182540	31.2435920
-6.3680123	-4.5817267
56.6165430	-8.8429744
12.1441440	5.3199859
0.6133134	6.0921248
-4.6241118	17.3167030
16.2008850	0.6011773
16.8872350	-42.1870910
12.9723410	15.2293010
54.7919500	14.0772470
-12.8584610	34.1585900
9.4005004	10.1544620
0.2406492	-26.6438740
51.8496190	25.5033720
22.8703390	-0.6052091
-7.8340322	10.4022060
2.3326725	-38.2292900
42.8987610	-18.1315250
-1.8526681	-12.8941650
-9.6783659	35.5108090
40.1882540	24.3199590
-12.3258400	-11.6517190
55.1255170	-16.3505850
-16.2258430	9.2920663
42.6728790	-3.5362173
1.7216117	-10.5399540
7.1745782	34.7016950
44.1330810	-32.5633680
-19.1138370	33.7509530
-8.7914074	-42.7245340
37.6857980	4.0583545
-10.8013730	-19.6658030
-15.0718260	-1.3231162
18.2710900	25.0194590
-3.6033722	27.0853580
51.3303510	32.4585510
-7.4003535	-16.4097100
-11.2339000	4.0300439
15.2312720	-33.0607800
57.4884290	7.9908144
-7.5700527	-18.6619780
52.5119490	18.9876650
-8.1344326	25.6739460
21.1604740	4.5709096
-8.2328630	-35.7650020
12.8515660	-12.0521340
34.2165720	-10.2809160
55.6306590	42.2013250
56.4365790	24.7536950
12.9135980	26.6534030
50.5324200	-2.5377702
56.0487500	-4.4578741
-0.4109984	-1.9884293
17.9370750	32.6642000
25.1920530	-16.9453880
-21.4961120	-35.6957920
4.1672732	-18.4048660
9.2710165	-27.5520500
13.5496070	-15.8231290
1.6885890	-4.0357490
20.7845400	13.6171610
-7.8258293	10.5205890
22.2342620	29.0107940
8.1664334	16.7977460
25.9408830	-6.2836903
-1.3978415	-11.1006990
-3.0547898	-7.7900499
16.7193130	-3.4983201
47.7806890	3.4150301
-26.1539780	0.1422727
1.1443765	27.7217060
-22.9351060	-14.8121220
-23.2249650	-41.9086840
19.8256760	0.4427961
26.1984880	-34.0585670
42.7450000	-17.5952400
-21.4398760	27.8464800
-1.4226459	21.0089090
18.8712300	28.1491170
12.3403050	15.5799310
-24.5859880	-32.9493420
34.9743790	-17.7566120
33.3184500	-17.3220270
29.4074920	-37.1124710
33.7080330	-41.2277690
-22.8149360	33.0155810
-21.6574100	24.6642770
-0.2603195	4.8478418
44.2569820	10.5032510
37.4018100	-11.2897390
-8.4441422	21.0974820
18.8117300	-38.8426070
-13.8431500	-34.0767350
-28.2931620	10.3847210
-24.3711650	-12.4054610
-25.9958060	-29.8585580
4.7985439	33.9532720
-17.0117490	-2.7022697
36.4275190	-40.6805990
-5.7545708	33.8920510
24.3494850	-19.8756620
46.9348210	-11.1815620
17.4617600	7.6568016
31.6452060	9.7328114
4.5003895	-1.9916808
42.3561490	37.9248200
-27.9685010	-19.3030990
-12.4649560	26.6986500
1.7553998	-35.6206990
37.1562700	-22.6836660
-27.8583830	19.0119930
8.6824636	31.5998780
40.7027700	10.2826850
-1.9337502	15.5171620
-28.4439450	30.8815350
12.6425740	-2.3575794
12.7042600	-4.3762576
-1.1668806	26.0382990
39.2669430	31.7847690
23.6729220	33.6995170
46.8629360	19.0505980
-28.2148710	8.1888669
8.2251501	-9.6907246
-16.8932270	17.9342300
10.0965080	11.8120660
38.3362760	38.1370730
0.6581564	39.6503100
0.4735925	14.7286400
50.6341470	15.0522200
31.0209670	19.9570190
32.0320820	25.8245510
-3.7386416	-1.5221117
31.2616300	21.4725220
-27.0252350	-27.7909030
19.2652730	-10.2708170
10.2199920	-39.0167400
-12.6404720	28.3115830
18.2754460	23.3069600
17.6060420	22.7798200
40.1856740	24.1383640
-20.5279150	-3.7848708
43.8879790	-23.5979860
36.9424900	42.7727250
10.1530120	22.0870070
-17.5884980	-19.4435870
-1.0765006	-0.4494350
28.7034880	-26.2824730
-18.3220050	30.4514860
-21.3684840	-18.2945560
-15.6813470	14.1933700
-31.7124920	-14.1319330
43.2017590	30.3430090
32.7154810	-2.1371235
35.8173640	-34.1250840
45.9317090	-5.2323793
3.4520509	8.3369006
50.5993930	23.0490410
10.4160910	-33.5230760
-9.2250636	-18.2757950
44.8436590	34.9298250
34.4247190	22.3750280
20.1068170	10.0907880
-30.6600330	-12.2296430
35.9913650	39.7905330
-3.5445020	-5.0518374
12.9533030	4.9410091
-7.4843329	-39.8773670
-1.4466363	10.6933090
24.8954180	-0.4174527
12.7535730	28.1651500
14.7184280	11.1807800
35.3462580	31.3324730
-9.2783605	-6.1975352
-22.4059110	32.0734900
25.3580260	-29.1601550
4.8451060	-6.3212781
-15.8565370	-3.2278821
22.5634650	11.1964510
8.0877801	10.4264750
43.1069770	-32.7558870
-29.5495620	37.2155540
40.2849450	-2.2043009
13.9659160	-41.8775770
-5.3240748	-17.3631970
46.4708980	-21.5959170
21.2462300	40.3536160
44.2826800	-4.7128362
18.8198800	8.7878331
-14.0847190	-4.1795438
31.9811270	38.6282840
-14.5772420	-38.8482980
45.5381860	19.2269250
27.0533340	-10.0710350
25.2042040	10.2214040
-27.2284960	36.3516980
-28.2821080	-11.0825640
29.8754050	-35.7782300
45.5590040	-15.2961100
-17.6091650	38.0374350
44.2658570	-31.7855490
-20.1496110	-25.4525830
46.6561970	36.7097870
31.1202650	28.7566170
-19.0935500	-7.0965435
-17.0826300	4.7156471
3.3783851	29.0481870
-1.3217136	-7.3108905
-10.4323640	16.2736400
14.4125920	21.0812760
45.1022990	5.2798695
39.7540890	2.5094350
-15.4473420	-37.4850310
4.6008500	32.0678940
40.2551440	-28.3590060
25.9132800	13.3259490
-16.6465570	7.8305636
21.6403720	13.3498900
13.8921540	19.6362690
16.8018110	-14.7062490
27.6688660	-21.2354710
-6.2321932	39.3974320
-12.1607180	0.1149032
27.1930870	38.0257350
-25.2697220	40.5792610
45.4414500	10.2191470
-9.7276189	18.9648920
38.4316650	-24.7003260
12.7409170	-28.5132070
-10.1182460	29.0360520
-20.3154800	39.4633560
-0.5502572	-0.7325152
28.8683860	5.8114719
-23.9300230	-42.2444700
-19.9151670	41.3623670
-27.7805140	42.0091230
-8.2313920	-7.4034015
4.2274865	-15.1686910
31.0579200	-38.3364810
42.9736240	37.1704970
15.8292840	16.4285560
-19.7201450	7.4005983
19.0036330	-13.4819270
-35.7579580	-38.1956050
-24.0699990	13.6898010
-27.1988050	-21.4588260
14.5893690	5.0121106
45.3811870	-24.7598120
-9.9131861	32.7079630
-24.4131570	-24.0041930
8.5966649	32.3280680
37.2097850	7.9632189
19.7069100	-39.3598180
48.7357730	-40.4541060
-20.8162630	-30.8711810
4.7607000	-16.5913960
-28.8642340	-38.9942890
1.2562622	11.7833900
-14.0579400	21.8962550
-33.4915540	-29.0191920
-8.3254202	12.4970760
-24.8035930	-23.4323210
-24.0716970	25.3528820
-8.7388524	-21.4007830
15.3914110	-0.0889151
9.5348971	-29.2875580
17.4262450	-22.3249930
14.4963450	-31.6145310
-8.2654275	-30.7765590
2.6427803	-7.6022896
-20.2998630	-7.8635039
-4.2465963	-28.7437090
-35.5653600	-5.5602553
-29.4158420	18.1950840
23.4171400	2.9715269
-31.9277540	-3.1722409
39.3171500	-26.4197850
14.8624380	32.3925320
34.7807120	-36.8344230
36.3331670	-6.1267952
-18.7575600	-15.2792100
43.3492900	-35.6868720
21.1429350	26.8822670
-1.6344454	-38.5059750
32.1332610	42.2903160
29.9130240	40.1344550
42.2507700	-14.8405010
17.1326570	-41.1206700
12.7261640	-26.1992810
42.4385840	-34.3970770
10.8559130	11.8300460
-8.3460924	-15.1672670
-8.5500696	-40.3455900
36.8332560	7.1351474
37.0242460	-37.6771420
38.7570160	1.0011001
35.7066870	38.8528350
6.1987964	25.2897980
22.9416260	22.2349200
-28.6030960	7.8029445
-21.0023770	-29.7762670
-2.0471523	-21.1089800
-5.6993071	-5.5905185
4.3959214	7.9332338
-20.2810990	-6.1761971
0.5319900	-23.1718290
13.4053970	39.5329470
32.1748060	-31.1011830
-36.1456190	2.5214749
5.0484513	22.7293430
-0.1497505	-6.3720164
40.0695770	-31.7699310
-37.1651340	-4.6008684
-7.1142028	-11.8586920
20.4454670	31.7318570
-35.6407900	18.1097370
22.4371500	-1.9997599
42.5539570	-11.3550230
-9.6216936	-14.0340030
10.0867020	-34.8985190
-31.1216010	34.1111040
-1.7676558	23.2556740
46.3174050	-12.7223760
-13.9409510	-15.0685760
10.7974550	-26.5328420
-4.7774107	-18.5607640
-10.0563230	-3.7005921
6.8520061	-5.5255933
14.1419920	-7.7492911
-2.8905235	2.1252029
3.1888045	22.5213040
42.7639870	-26.8075930
-30.1853920	11.8154850
-32.6947890	-15.3136570
28.3695470	17.8579500
34.0391180	-34.3546050
26.9623040	0.7029850
27.1524370	-20.8655670
-35.0074330	-11.8931390
-26.0979830	-13.6244150
-18.1571020	10.1602790
3.8537444	39.9337990
-12.5741530	-22.3613010
26.4655570	40.2443730
-17.7584180	-18.6424030
-23.6206670	-15.8609440
-36.8393450	18.8379190
-22.8785570	-39.2317650
6.1999620	22.6596910
45.9333730	7.4244292
45.8028130	14.5174770
-31.5771400	6.2305089
-13.6424530	37.6753660
2.0979525	8.7817211
-3.1811556	14.7522160
9.7668720	42.0173870
-34.9062990	-31.0470790
19.2746880	-40.7631530
29.5592790	-35.4831020
19.4581180	27.2054320
29.7979420	17.0221870
36.7832610	-39.4950550
-11.7067350	7.0243431
-32.7898430	1.3585329
-4.7791988	19.1662880
-5.9013698	23.9834950
-36.2780920	34.1642900
-14.2183120	-0.1570732
28.9003710	-34.5042350
-23.3830100	-33.4393530
12.1926350	-7.7920966
37.3175700	1.0626232
41.1559280	-23.7980900
-10.9733980	-6.5299376
-29.1304250	36.6847660
-32.8259550	-38.9198410
5.7958485	-19.4363820
22.2009530	-31.5286490
31.6337480	10.4261080
12.2202440	-40.9134830
-21.4223810	17.9163310
35.4406930	11.2243810
-20.8083470	-32.1830180
-0.5149476	32.2878400
-22.2343940	33.2223780
-19.3299090	-6.9406782
5.8890695	2.5598383
-5.7270195	-4.8298127
-31.0667570	-30.8008660
-36.0051770	-16.1613170
-37.2675670	-20.1858050
-12.5670360	7.4689581
25.7290400	10.6394080
41.1153190	-20.9016120
32.5779650	-15.1700280
39.6324900	4.5484899
16.2033860	-17.2524030
27.6981220	10.6456780
-18.6194640	-9.5886442
-34.0900640	-24.2203180
44.0729520	2.8178326
