jMRUI Data Textfile

Filename: dataset19_nWS.txt

PointsInDataset: 2048      
DatasetsInFile: 1         
SamplingInterval: 2.5E-1    
ZeroOrderPhase: 0E0       
BeginTime: 0E0       
TransmitterFrequency: 1.2322E8  
MagneticField: 2.9E0     
TypeOfNucleus: 0E0       
NameOfPatient: dataset19_nWS
DateOfExperiment: 
Spectrometer: 
AdditionalInfo: dataset19_nWS
SignalNames: dataset19_nWS.txt;


Signal and FFT
sig(real)	sig(imag)	fft(real)	fft(imag)
Signal 1 out of 1 in file
49894.5830000	-25.3677750
49680.8000000	31.8919620
49457.7150000	27.0576460
49220.1550000	-18.9449750
49016.4170000	-1.0318779
48741.4650000	-45.7468760
48496.1240000	-4.0785811
48295.7560000	-29.4519650
48099.1660000	-46.7618150
47901.9710000	26.0571040
47620.0370000	-9.2764122
47450.5170000	18.4675710
47230.2020000	-27.6313270
46974.7840000	-13.3490130
46703.7090000	24.1472570
46514.0280000	42.8107450
46343.8090000	-38.5663620
46116.3290000	43.7972040
45882.3300000	39.3201000
45613.9890000	7.3295100
45408.5470000	-33.2572460
45247.2700000	24.3932300
45023.6920000	21.8243750
44797.8430000	-39.0313370
44637.1170000	34.6784180
44398.2260000	-46.3934920
44144.7690000	-27.1027940
43925.6840000	-34.8758460
43801.6660000	-16.5401290
43595.5440000	37.3093820
43340.0810000	-1.2841615
43141.1690000	2.2674068
42975.7530000	-7.0122267
42765.8850000	30.2028290
42574.3240000	-1.2884364
42365.6610000	37.6535450
42126.3900000	-43.9923520
41928.8920000	-35.0438260
41730.7760000	-5.6060870
41512.3340000	-0.4268984
41377.2080000	-23.3090240
41188.6020000	-3.9618452
40999.6090000	-26.2085360
40788.3130000	42.7348140
40604.7010000	7.8877954
40372.6670000	-12.0365090
40223.5760000	-10.1853660
40057.4770000	18.6871160
39798.5020000	45.4890760
39612.2700000	-19.1530160
39438.6210000	3.3484630
39235.9060000	-29.9928380
39114.2650000	-38.6547780
38898.3880000	23.9911190
38667.7040000	37.3624710
38535.7310000	43.9736260
38331.0550000	-22.9150500
38136.3080000	29.2575390
38009.4170000	13.1474210
37779.7940000	33.7385520
37621.3340000	44.8843460
37485.9830000	24.5717530
37277.7850000	0.0183365
37068.5020000	-32.6326430
36942.6060000	-43.2251990
36764.0670000	-5.6214084
36546.7120000	21.4272450
36392.1000000	11.4636340
36284.3770000	-22.8745630
36066.0520000	29.5322430
35925.6250000	40.7313900
35778.4110000	10.3612270
35564.3700000	28.2562350
35361.5070000	12.4256930
35258.8560000	-36.2484550
35069.9630000	31.0927340
34900.8690000	-31.9655650
34725.4170000	-16.3772420
34564.0540000	-35.5122500
34430.3310000	31.3395090
34277.1320000	-18.8643830
34060.4840000	42.2412510
33914.5900000	42.3240070
33791.0730000	44.0175770
33629.9450000	-44.4333230
33486.7300000	-36.1590870
33336.0840000	-1.5476490
33159.9660000	14.9946200
33011.1530000	0.3551495
32855.7110000	-7.5202858
32683.1270000	-30.8546460
32548.9380000	-30.6936000
32401.7790000	28.7788670
32177.9270000	-43.5588800
32067.7340000	47.0410500
31880.5360000	14.6250320
31807.8010000	-38.6385560
31655.0890000	-46.5581530
31438.1910000	10.4247430
31272.6050000	9.6746557
31153.1330000	19.8588430
31035.3150000	38.7513790
30856.4030000	17.8907920
30729.3380000	27.2749400
30569.2520000	-44.7511780
30447.0220000	12.0667530
30269.4230000	4.9330061
30112.4630000	-25.4769760
30008.6890000	-11.5144150
29829.4980000	17.5846470
29730.7020000	43.6058170
29547.1610000	-42.1535100
29480.5350000	45.9236790
29275.5580000	43.6240050
29154.3220000	16.0872720
29004.7200000	-16.2008540
28871.7790000	41.8819170
28761.9490000	20.2330650
28639.1700000	-6.4593226
28475.0260000	-33.9282430
28346.0540000	-4.7536849
28194.2560000	20.5883360
28094.5070000	35.9503400
27923.6770000	14.8402170
27874.1740000	-17.3226130
27719.5180000	36.3956200
27537.6730000	31.5880400
27480.5230000	-26.0792350
27289.3660000	-35.4199440
27192.5350000	-16.9221620
27036.4780000	-35.6018350
26968.7710000	-7.4904933
26833.5280000	7.6295403
26698.1470000	-19.8461360
26555.1880000	28.8411000
26384.4770000	-38.9294400
26260.4490000	26.8800510
26144.3310000	29.6266170
26043.7590000	-46.7317820
25955.7210000	-16.2608510
25843.3590000	13.5079190
25655.5870000	38.2204680
25583.5260000	-38.7414230
25425.5050000	-27.6869070
25353.5390000	-44.6368900
25228.4750000	30.8680400
25096.3100000	34.1837240
25006.1900000	-32.4569940
24847.0630000	42.1750650
24700.5470000	42.6609930
24595.4920000	2.3007223
24465.1460000	0.4620482
24396.3770000	32.5640250
24321.9940000	8.3601249
24182.2700000	17.6536440
24064.2140000	37.1392720
23922.4020000	-35.9244200
23785.4150000	-33.5742080
23711.2540000	-5.9906405
23629.2690000	-35.9681550
23509.2680000	-2.5385469
23403.8970000	-37.9787270
23312.2660000	-15.8864560
23173.5470000	-17.5037640
23077.6530000	8.0464955
22939.7350000	-11.6851590
22840.4960000	36.5337720
22752.3320000	16.8658450
22584.7520000	-14.0577810
22487.7840000	-8.5887151
22455.8640000	-4.2945467
22347.8260000	-18.4371770
22241.9990000	37.7272470
22055.3860000	-41.6482100
22021.5310000	41.7897380
21850.0190000	2.7737759
21818.6750000	20.6596660
21700.8970000	-8.5399472
21585.8230000	7.3075342
21472.5940000	-33.0894520
21363.0820000	30.6458620
21242.8450000	-10.0697490
21181.7780000	21.4527330
21107.2650000	2.0896604
20999.7560000	-21.9542600
20849.0050000	-1.5209160
20753.7910000	14.7717790
20650.8900000	-12.4009950
20556.7430000	29.6381460
20448.0790000	33.8230280
20402.9500000	-37.8012550
20341.9520000	-0.9167540
20161.0710000	5.5722947
20134.4390000	29.4344010
20042.6970000	23.6582590
19920.4880000	-39.7508310
19842.4170000	21.6376330
19720.5300000	21.9160610
19667.6120000	30.2209540
19526.1250000	-10.3767150
19425.9530000	32.9161100
19323.6370000	46.5037380
19265.8320000	-36.0404160
19137.4940000	16.8129830
19060.2430000	-2.4188178
18992.2470000	11.2516530
18959.7930000	-11.6210270
18816.0000000	-3.0363258
18750.7980000	-38.7050880
18634.5150000	-32.8567610
18539.6380000	26.2857110
18473.4990000	-16.3318880
18387.0080000	44.2498370
18334.6880000	-28.1647500
18247.2200000	38.6715790
18100.1960000	26.0947680
18051.3450000	42.8339150
17937.8040000	-42.9441140
17908.8380000	-5.5984171
17828.5930000	-26.1134550
17661.4390000	16.7088610
17632.2020000	7.4516416
17540.4270000	26.2493520
17426.2250000	-25.0516280
17394.6930000	39.6508810
17264.6220000	12.7774310
17215.4830000	-42.5504500
17111.7430000	-12.0730690
17064.3750000	-8.7650162
16999.6730000	33.3920170
16881.1990000	11.1618190
16791.2980000	-34.2130570
16758.3240000	36.5492230
16621.3590000	8.9015078
16614.5480000	24.1448310
16512.1440000	-12.1058100
16427.7140000	-26.5746520
16321.6230000	-15.7550090
16295.1560000	-25.1192860
16222.1350000	14.2189580
16105.0290000	13.0084350
16037.2490000	-30.9916510
16003.6550000	-4.0100619
15867.7250000	-15.0943430
15786.3240000	20.9291280
15769.3220000	32.7051850
15631.5070000	37.5784240
15630.0540000	-3.3871691
15513.8870000	-12.6718550
15404.4540000	3.9517319
15358.2910000	42.9064660
15325.9320000	-33.5945860
15200.8830000	34.2016190
15194.0810000	44.1523290
15126.8680000	38.9455880
14999.2820000	-9.8103718
14946.9240000	-26.2568040
14837.1100000	42.1548540
14769.6070000	28.7888110
14740.9790000	25.7366370
14619.7820000	29.5048610
14564.1720000	-10.2160340
14519.6950000	-27.0691180
14468.4650000	-10.2039920
14348.7990000	46.6856740
14342.6780000	4.8971263
14235.1120000	10.6034020
14222.3660000	45.3088030
14139.5670000	-28.3014930
14096.6180000	34.7180120
13950.1820000	23.2676180
13930.8910000	38.7218770
13818.3340000	-46.2605590
13772.2830000	-31.8042110
13682.8860000	33.9997410
13656.8890000	-33.5141870
13610.9310000	8.2196217
13490.8000000	39.1179850
13476.2650000	0.5045673
13411.4150000	13.7261820
13345.6370000	-46.1786050
13269.4240000	-40.5184060
13244.7150000	36.1248850
13158.7640000	-17.6879360
13075.8030000	26.6913290
13073.3420000	-38.9346460
13002.5220000	-29.2113200
12882.5290000	21.7817890
12834.7640000	-9.9444088
12789.7280000	-34.7345150
12738.5270000	-9.2232442
12652.1780000	19.4554980
12573.9110000	-8.4868384
12533.9120000	-28.7929650
12502.4580000	-29.5235680
12462.9430000	-24.3796940
12357.7280000	-11.7377200
12328.7170000	19.1072390
12272.1160000	45.3020060
12159.7630000	-28.8917710
12131.1880000	21.1737280
12112.9000000	-39.7974630
12074.4130000	31.3881440
11997.4400000	12.0567500
11899.1030000	-10.6446170
11853.0010000	-4.0144746
11848.9940000	-42.9785710
11716.2520000	-20.8369260
11705.3370000	-35.7082300
11623.7920000	-23.1132700
11564.5560000	-44.9646570
11527.0730000	0.6884580
11523.6290000	-26.4554610
11388.3870000	17.6884870
11337.5690000	-12.7276790
11333.7750000	41.8102860
11306.3360000	38.9507340
11241.6880000	-20.7683540
11152.1460000	-44.9409700
11078.8360000	15.3784400
11080.5070000	23.4783740
10983.4130000	28.2179160
10991.6410000	5.2615615
10887.1480000	3.0695211
10854.4790000	-12.5271950
10759.0200000	34.8322050
10700.8160000	-38.4813890
10687.2140000	24.7941350
10597.6340000	-37.5982090
10552.2890000	-18.8370560
10572.5830000	4.3528122
10495.0090000	15.1584130
10404.7310000	41.9160340
10355.5820000	11.1324930
10331.3680000	44.7319940
10334.7440000	13.9165750
10252.8660000	24.5001910
10244.9140000	22.4673840
10122.7990000	25.2941930
10096.1340000	-33.2887130
10084.8960000	-34.8527880
9974.7991000	-18.9348440
9941.8309000	30.9478810
9900.2164000	-7.0888728
9896.0605000	20.1341740
9830.4951000	21.2960270
9792.9687000	-31.5018040
9709.4570000	-28.9264590
9659.7777000	7.8952390
9675.0960000	32.2672390
9638.8653000	-43.8257520
9544.2643000	-39.0321710
9509.7259000	1.6761635
9422.2049000	-6.2985155
9409.2929000	29.4748410
9401.2203000	-43.8376750
9300.6053000	6.2002810
9280.2523000	9.6833455
9284.3674000	27.9095060
9201.8646000	-1.8248462
9199.4635000	15.7224080
9079.4210000	3.3490962
9037.3546000	-35.7994620
9005.4160000	-18.9153210
8950.1842000	-16.9530010
8907.9367000	40.4245290
8871.6539000	1.3624272
8823.0867000	7.4559242
8792.9253000	18.5746990
8777.7189000	45.9481240
8726.1659000	25.2638200
8652.2541000	-18.4283290
8651.6037000	14.2342300
8624.7350000	33.4748160
8524.6139000	21.6373620
8564.9839000	-2.1918046
8509.6287000	-11.2206370
8438.2886000	-33.9218060
8454.2913000	-22.8737380
8348.6640000	-11.8370190
8365.7750000	-39.3270480
8313.0247000	-1.2088136
8277.1234000	-3.4664079
8253.0320000	9.2446886
8129.3568000	21.9863850
8097.2402000	36.4508850
8054.1470000	-20.7907160
8081.8767000	-37.3891700
8032.4150000	-21.0476670
7966.4398000	-24.0420160
7951.0745000	23.2950230
7910.0078000	1.8555237
7915.5140000	36.4043370
7860.3559000	-14.2796790
7770.4975000	-39.2162420
7743.8163000	-20.1304170
7722.6965000	20.2152360
7724.3307000	24.2204430
7660.2057000	30.5080380
7613.4012000	-1.1855807
7627.9686000	-44.4426320
7536.8661000	18.7956200
7488.6811000	-11.7958220
7480.1997000	-42.2006780
7416.6743000	-6.6517582
7450.0264000	37.2405980
7390.7804000	-4.7440875
7357.3342000	-29.4218040
7337.2577000	12.9637120
7304.9008000	-23.9615260
7207.9943000	39.3459580
7173.2466000	-33.5294370
7162.3216000	-25.0033660
7170.2060000	4.6509121
7057.7738000	-20.3042890
7052.9398000	14.7236740
7073.4391000	5.0510718
7044.2445000	-41.8718120
7006.3592000	-44.8347500
6945.6498000	-42.3870220
6864.8624000	-29.6157510
6904.8140000	4.3410607
6826.1067000	-32.0795050
6829.8172000	13.3697960
6729.6119000	-0.6209870
6698.0118000	9.6889737
6661.5843000	-27.5789590
6656.5034000	-33.8736210
6645.6243000	16.7895540
6602.8733000	-3.5399709
6571.9391000	23.2562610
6572.4334000	-4.2530980
6516.0358000	18.0756360
6465.2062000	-40.5992770
6450.7370000	-45.1784780
6419.8484000	-34.8006300
6367.5213000	-7.8292014
6400.5839000	-29.0597540
6299.5093000	-32.2388090
6274.5146000	43.7365880
6253.2608000	37.3018670
6251.3725000	-42.5547410
6215.2958000	24.6476240
6175.9596000	-38.8721520
6127.7977000	4.9443732
6127.8112000	41.9637740
6082.9676000	26.9571370
6109.3843000	-20.0005640
6092.3535000	-16.5664780
5991.8261000	-37.2221620
6002.5783000	-5.0373203
5932.3123000	31.8502270
5896.0003000	-30.2823650
5862.7244000	16.9589300
5896.5551000	39.5513430
5843.8296000	-5.6026956
5818.5782000	-14.2914890
5770.1677000	45.1185740
5745.4643000	8.0453196
5775.9708000	32.9716480
5732.1523000	1.1799518
5724.1401000	1.3896838
5651.9476000	22.0858700
5625.1695000	30.9689030
5634.2926000	-12.8417790
5611.7887000	26.1512950
5570.8340000	32.2275730
5522.3905000	8.3755254
5521.4185000	-20.3801480
5501.4501000	12.4108470
5490.9631000	0.4390237
5419.3918000	29.6126480
5400.8446000	5.9220060
5333.2848000	41.3485340
5327.7518000	-16.7313910
5304.6896000	-14.6342250
5264.8629000	40.3214530
5231.5265000	-17.9599340
5247.9317000	-12.4565120
5182.9899000	-4.6349813
5174.8761000	-26.1912510
5133.5041000	22.7306090
5119.7470000	25.7183710
5114.4416000	5.7835654
5070.5672000	38.8682330
5061.3779000	-43.5344490
5092.3540000	-23.8772370
5036.2074000	35.9104840
4978.8062000	45.6690540
5001.6296000	6.2499727
4979.5733000	-27.0671270
4906.9703000	-20.4819110
4901.4165000	-32.5358950
4868.1679000	8.6272878
4821.6277000	24.7926140
4828.8518000	36.1414370
4785.0676000	11.0709060
4796.4339000	24.1867800
4796.6667000	19.7065540
4789.9928000	-25.8721530
4770.1126000	-2.9294814
4735.7482000	27.1926530
4694.3395000	-14.7733950
4694.5299000	-39.7672030
4672.6481000	-22.7948150
4651.2092000	-36.2697830
4555.5999000	32.5467320
4588.0620000	21.8031770
4511.8284000	39.0962870
4576.4512000	-44.3872110
4500.9535000	-1.2909630
4538.3366000	-45.6715710
4455.0362000	25.1823240
4458.4588000	-29.8559390
4426.1533000	36.3076250
4435.7661000	4.1968860
4364.4679000	39.9763460
4396.1000000	0.4561169
4307.6003000	8.8012046
4368.3265000	-33.3237040
4346.7066000	-39.3929030
4294.0719000	45.7540720
4290.9481000	-44.1388030
4240.3218000	5.3248874
4222.0454000	-16.7497910
4230.9245000	35.6138410
4174.0047000	-6.2614515
4169.1418000	44.3722040
4156.2086000	39.4204670
4154.1409000	-45.2908620
4138.3274000	-9.2046637
4055.1187000	43.8198730
4040.0314000	-30.6428240
4059.6020000	-11.5339340
3993.5057000	-44.6649050
4021.5340000	5.0444104
3974.1147000	-15.5028320
3953.2759000	36.5786250
3933.2942000	4.8648369
3949.1719000	25.5374850
3875.2206000	35.6278620
3902.5555000	28.5996370
3893.4528000	1.7232018
3875.1028000	-33.5670640
3846.3863000	23.8968070
3784.6313000	29.7143890
3817.2406000	-44.6183160
3749.6466000	-29.3761740
3751.6714000	-6.9954864
3780.4065000	-8.8265501
3702.1038000	-14.0221990
3752.6170000	-21.4291760
3735.6193000	-19.1367830
3724.8083000	30.0704020
3680.4728000	-14.1167030
3613.0481000	4.1445086
3589.4140000	0.5570069
3579.4513000	0.0342598
3609.4280000	47.0648380
3611.1877000	24.1540520
3576.3996000	25.8943570
3526.1174000	17.7534060
3559.8760000	-29.2903490
3525.3650000	-6.6509789
3483.3064000	-26.0555720
3472.6014000	46.5611480
3434.9162000	-44.9165240
3443.2941000	-46.7655640
3446.8203000	16.8672540
3383.9030000	8.6353704
3441.2118000	-25.2611500
3402.2883000	32.7687530
3397.9179000	-32.4547290
3346.2950000	18.3268770
3318.9482000	10.1129150
3315.6367000	12.3316380
3352.0416000	33.5334860
3277.9394000	-31.1409360
3313.2246000	-11.5403540
3269.4089000	1.7106582
3269.3572000	44.2683570
3249.5570000	41.9422290
3243.4788000	-2.7551968
3163.3269000	42.4243310
3205.0090000	-20.2980700
3155.1230000	-31.5266630
3128.2268000	32.3620920
3148.8860000	-25.1169120
3149.7980000	24.9293540
3097.2817000	-12.4376730
3088.2236000	33.6614820
3084.1600000	20.9817680
3074.7083000	23.9570780
3022.4692000	11.0763580
3024.1495000	6.0069412
2981.4030000	-14.8968750
3025.0055000	-37.3426190
2980.2328000	-45.2742390
3025.0786000	-23.3374330
2961.2900000	1.1765108
2955.1056000	6.6726792
2898.8469000	31.6330050
2922.1701000	-3.2670970
2935.5365000	11.8533380
2936.0970000	-28.5228540
2921.5441000	11.5487370
2835.8105000	-36.5160250
2881.3235000	-13.8103130
2864.7694000	19.0163640
2875.7544000	-42.7137950
2838.8990000	16.6029810
2806.2234000	21.1034320
2793.7230000	-45.0233650
2738.0551000	31.4355030
2731.5327000	-46.5014410
2752.1500000	22.8716700
2781.5114000	8.9042014
2708.9971000	3.7996265
2756.0013000	25.9438150
2699.8776000	-4.7325127
2684.9559000	-23.8467570
2715.2275000	41.3147100
2619.5867000	-37.5714780
2652.8382000	15.8565400
2621.9696000	-8.2665125
2603.4709000	-26.3244470
2657.7162000	43.7066540
2598.3539000	-7.2553512
2594.8240000	-10.3018540
2620.9470000	27.1091850
2519.3516000	-39.7615220
2529.3477000	33.8510840
2497.4730000	38.8764990
2550.0068000	38.5042060
2531.4728000	1.9170282
2486.2167000	23.2058200
2508.5087000	16.9523220
2484.8933000	28.6707380
2473.8538000	43.8720040
2447.3602000	-21.1190660
2424.2326000	-25.7032190
2394.2768000	21.5913830
2403.8292000	10.7351340
2443.1081000	34.5908910
2395.0782000	-37.8658870
2403.7781000	-6.9112574
2350.4020000	-36.4971780
2382.6366000	-9.4061931
2361.8008000	-21.1073640
2380.2832000	-16.0313730
2379.7148000	-44.1046630
2293.5247000	-5.9719057
2275.2218000	-39.2632350
2303.7281000	17.9994620
2266.0519000	24.7069560
2250.1035000	-41.0331000
2310.7397000	24.1135240
2254.6308000	34.8499610
2241.3786000	37.6446120
2278.7998000	-40.3902090
2222.8159000	16.0320920
2210.5048000	2.9323070
2203.7303000	-17.3370940
2195.4699000	-37.7661390
2224.5410000	14.3128550
2168.4011000	2.2856015
2206.1838000	22.2534370
2112.8379000	46.4775070
2147.3767000	-25.1283530
2166.4945000	30.0912400
2166.6932000	-28.4743550
2122.1387000	-45.4703290
2133.2261000	-3.9079824
2051.1702000	37.3732770
2098.9176000	43.4461590
2091.2559000	2.9976454
2075.8613000	11.7986190
2064.1599000	-14.8665170
2051.1045000	12.4310150
2058.8740000	-44.4229220
2002.0169000	-42.7305610
1988.7104000	-2.0788852
2035.6521000	10.9860320
2039.4788000	-26.2998590
1952.3198000	6.1917582
1950.5465000	31.6146440
1935.8867000	34.6064670
1915.7620000	34.4046840
1943.9960000	-39.5469620
1936.4732000	33.2843510
1902.8247000	-43.0715240
1896.8044000	-31.9708270
1890.2889000	9.0711341
1867.4777000	-4.0329647
1906.9470000	31.9227730
1882.0581000	-1.3432791
1869.8422000	-15.1581450
1891.4872000	-41.6014670
1885.8106000	-42.1339340
1823.0348000	16.2107870
1863.0909000	29.8512110
1808.4588000	-1.8962385
1866.6794000	22.8479520
1800.1816000	-1.2721026
1846.3908000	3.1579310
1834.4045000	-13.9957840
1752.4610000	23.8523080
1762.5341000	16.5705160
1739.1415000	-2.2879802
1804.9935000	18.3753930
1716.6337000	-4.5136990
1754.7332000	5.7214068
1749.9970000	-36.6003100
1699.8117000	-37.5519630
1687.6440000	39.5148080
1708.5335000	4.5606801
1710.6859000	39.4524680
1696.7841000	34.7658740
1711.6493000	-46.4078110
1684.8759000	-43.9611510
1632.8039000	-11.6494420
1710.5465000	-35.7722430
1661.4640000	26.1703780
1641.8626000	-14.8560040
1657.2432000	15.5025450
1639.2676000	-34.2045660
1663.2928000	9.2944155
1667.4830000	3.0088061
1601.4566000	31.2342330
1612.9264000	46.2564920
1636.0182000	-46.3154770
1619.7057000	44.0308840
1541.9376000	-34.4688280
1556.0680000	-16.5701210
1609.1706000	-45.0099270
1547.9835000	-27.3923680
1584.3303000	-21.8281620
1556.9617000	12.0358280
1564.8012000	10.3661060
1576.0662000	44.3619750
1527.8637000	14.2400280
1554.8134000	-28.6419540
1485.6965000	-16.3162600
1488.7852000	-20.8837130
1505.9351000	30.9971950
1490.8819000	-2.3712462
1521.1220000	0.0404588
1507.8631000	35.4101710
1492.8188000	-39.0563520
1460.8017000	-11.4489250
1501.4775000	34.5331730
1478.2785000	35.2171710
1409.7593000	-25.2274490
1455.4449000	25.7531140
1394.7514000	-21.9694110
1397.0131000	14.4207380
1378.9347000	23.7196840
1389.0279000	-37.9610740
1390.7638000	-28.9632990
1360.9081000	44.9288820
1409.4855000	2.9856736
1415.3818000	-37.6685310
1412.9391000	34.0557070
1350.3588000	-36.9641970
1360.5617000	-36.0578620
1327.5208000	38.4757340
1384.3299000	28.9679760
1323.8644000	23.4180650
1377.9079000	40.1553200
1316.5121000	-33.8762020
1355.6860000	12.7093490
1359.2772000	5.8920181
1298.3384000	-36.6749530
1323.3018000	-6.0569808
1280.8954000	25.9976770
1265.9532000	-17.3708730
1302.7367000	34.3989920
1265.4479000	8.5220903
1282.1599000	37.1625240
1241.4617000	17.0016410
1246.2299000	-9.9472056
1271.6843000	-24.1284950
1245.5967000	-20.8384930
1222.8616000	21.9329620
1249.7657000	19.6651250
1192.8378000	2.3160878
1189.5423000	-32.0114650
1247.1356000	33.0968610
1174.1897000	9.5275788
1239.6837000	-35.9581200
1237.2118000	13.1582990
1164.5648000	40.4296210
1155.3636000	19.9828250
1143.0133000	16.5266390
1228.3158000	-36.0398390
1172.9911000	41.5078000
1211.4861000	-31.1697280
1192.1829000	-4.7918812
1131.3076000	-11.8731250
1117.5746000	38.0560890
1190.4340000	-3.4387294
1126.0997000	-38.0857810
1122.3494000	9.0155364
1120.0479000	19.7998350
1108.5394000	-13.0054290
1132.9458000	-16.8144750
1143.6522000	-33.7273810
1103.6109000	0.6940705
1108.0140000	13.7885280
1097.5629000	-1.5378207
1058.7907000	26.0470620
1110.9821000	45.9312240
1094.9839000	-17.9608970
1041.0847000	-43.1184730
1046.8513000	40.2468080
1109.2221000	-5.8924758
1025.7784000	39.8794630
1018.4980000	-2.8281861
1100.6106000	31.7171030
1029.9612000	-42.1977400
1020.3305000	31.5848440
1051.3305000	0.8186785
1032.4754000	-39.4432590
1059.0696000	-27.8073200
1015.5093000	-10.3959020
986.0137500	-19.0974910
1013.5590000	40.6825960
968.0991200	-31.3020850
1041.3055000	6.9004652
984.7593900	-42.9111840
1044.7895000	-33.8332710
957.1804400	-40.8320490
1012.5249000	25.1987880
978.7175100	-39.5186140
1011.0946000	-7.5605895
968.0614400	4.5474996
996.7054100	28.4778350
930.6994300	-34.1516020
961.9530200	10.6844370
994.4193000	20.7752580
973.4063000	12.4482130
934.4477000	33.7315490
936.8637900	26.4024150
975.1379100	5.6228490
982.1096300	-29.0876080
915.9944400	14.3199490
929.4263000	-32.2697980
940.0254300	-29.5261300
878.9849600	6.4453693
872.4278500	34.2762760
922.3751800	-2.6223618
881.6116300	-28.9079110
884.8804400	-40.5248970
937.4110800	-7.4377806
901.5512200	9.0065092
932.8310100	-19.8784520
885.3263000	-42.8136670
886.1474500	17.2668740
879.7166500	2.7094087
827.9788600	45.2869270
876.6959200	-32.7321730
868.9363500	-37.7094950
876.3363100	34.2716780
817.6520100	-32.3683540
865.4514000	-2.9438576
820.9366500	-13.4572450
860.8383100	26.8083160
801.9517000	-17.9715820
798.8089500	23.2043070
867.4772000	-24.9334180
867.4225000	-35.4988230
846.5534200	35.1882260
801.8605700	-44.6728730
837.2940900	-3.6238721
847.2958400	-24.1638590
772.3498500	-44.3337400
848.2427000	10.4935600
814.0993200	-0.6369409
810.4843800	16.2715840
775.8746400	12.8732820
823.3486100	12.5663960
793.8393100	-44.3593700
769.2802200	-10.7508710
823.7957400	-25.3343790
733.3734900	-13.5656030
763.0072500	26.3978810
813.2777500	18.3816110
766.3397600	-36.4941180
786.5332900	34.6200790
789.3166400	40.0965040
733.5267500	46.6286710
794.2557800	-8.1831483
725.0752800	17.5821430
704.3797200	25.8569830
710.9781300	-43.6082740
712.8191600	-19.5686580
728.1669500	16.3116480
730.8250000	-4.3720532
762.4435200	-39.9366300
676.2296800	-21.7182650
707.2454800	18.9537390
713.7428500	-18.4596290
740.9167500	5.8260119
689.0280300	-30.5251840
699.8949800	20.8366270
660.2498100	-28.1524450
676.9798100	-45.5648410
654.6449000	42.3471210
708.7787600	-40.5811700
735.6238300	43.8873170
723.1042200	31.0207570
715.6490800	24.5603070
685.7169300	-18.7248560
683.3487200	-16.6103650
691.7897900	29.0924180
676.9448300	32.8251450
709.7705400	-29.3323120
646.1126700	2.5308726
643.5044400	36.7338730
623.6791400	-20.9927120
677.6370600	8.8193809
671.7558400	-1.1267322
604.2146000	18.5547280
606.5735200	-27.6440260
620.4174200	10.1694040
633.5811100	1.2132194
660.5575100	-6.2473646
633.6599700	-15.4024570
621.7697100	35.7941770
592.3296900	15.9909710
631.5704200	-11.9040090
662.5235700	28.4444190
614.3083100	-4.2650601
632.4119300	-44.6045640
565.4958600	-41.8148080
611.2242900	1.3881981
628.1344300	6.0726267
558.7269300	-14.2418370
584.1143300	-11.2998470
590.6216100	-26.7219640
599.3575300	28.6472650
630.7202300	-9.9803176
587.8430900	-14.5797250
595.1554700	6.9047963
578.3228700	45.7920520
598.7339200	-39.6969830
601.7548200	-7.0517603
548.3652500	32.9379140
600.9928600	13.7030760
559.0912600	17.8055690
540.9962800	29.0128340
610.9288600	-15.9739210
558.6101900	7.3214886
527.8415600	23.6578350
573.5577700	20.0452510
570.4228600	18.0144580
510.5930800	37.1468010
570.9118400	15.8987040
506.0590600	-32.4121040
513.5188900	-7.5510558
505.1014900	-8.6597490
492.3516000	-6.1584269
524.6481900	15.7871310
502.8734000	-46.3049870
494.2404800	8.8784861
492.1418600	44.8757060
517.2340500	-17.1088980
551.1109900	39.3319290
550.1727200	-1.2214949
489.9842200	42.1364840
481.4573600	16.8168260
559.4761600	3.8958969
469.3557200	-27.3135860
500.0229000	-22.1308240
462.4637500	2.9683991
462.4152800	10.0150440
522.6932100	3.1608981
482.2264100	29.1494920
520.1547800	19.9479940
472.5208600	-15.0866500
506.1286300	-25.0791430
475.8266800	-32.7277590
448.1246900	4.4072542
483.5212000	38.7913440
510.3702500	45.9017430
515.0841300	-26.5614190
463.4337800	14.4596470
519.6477100	17.3661370
446.8196400	39.4533860
486.2532900	-9.7286216
424.7709100	-28.7731480
500.6543300	-44.3238710
431.0048300	7.0261972
472.0457800	-27.6528040
453.4137100	20.0372600
450.4947600	-4.4885716
448.8077500	11.4443090
490.2898800	-18.2770020
464.8611300	-18.7090560
483.6578100	-8.5628959
487.2258200	16.3636580
491.9984300	-8.5256156
480.9401400	-6.9559527
461.3712200	35.4432370
395.1948700	24.3610930
457.1807700	45.2588670
410.4401800	-47.0178390
479.3753800	-3.9446676
459.6549200	31.8667750
387.2268600	-15.0078840
392.8261500	33.6767480
419.5992100	42.5718680
396.8772500	-1.6387490
452.7999400	13.3129830
417.8775200	-9.2651042
447.1148900	-24.9745350
456.9425600	-44.7602850
456.2177300	17.0439580
435.7506000	-28.0089500
382.7704600	-12.8321160
438.7156700	18.2844800
373.6669700	34.8199540
415.1131700	19.6802330
369.8131700	-14.2848510
444.2652800	36.5962790
358.7480100	-19.0997180
389.4610100	-17.3797090
374.9737800	16.4676190
388.5224800	-43.1550590
391.3091200	1.3881255
396.7918600	37.0722770
391.8620200	43.4041390
408.7475400	-21.5348460
345.2851300	-36.5018300
364.2595400	-29.1025900
362.0207000	38.5628530
348.5306300	-10.9414910
352.8171500	26.1458710
403.6928900	-6.7726422
407.5277300	-44.6098850
379.7294200	-21.9459300
397.4241200	24.1352320
402.3625800	28.7744240
389.5250400	-7.0982597
342.4734100	-20.3568550
362.0913000	-1.8405752
369.4518800	-7.8824917
354.2060200	8.8983851
320.3713100	-17.1622770
329.9724800	-11.9004740
393.0293600	7.9930681
329.9680500	-3.3014619
312.8462200	18.9241130
379.7573600	-10.5777890
305.3108600	-20.6804620
336.9948800	-20.9732740
348.5755600	-11.0290390
357.0695000	30.1196470
322.0280400	2.9752244
361.1365400	-18.2861940
382.4011500	-27.6073240
312.8374100	9.2931627
355.0914400	-18.9688240
329.7248400	-28.8127900
303.8233000	1.5212507
327.1342100	32.2630490
346.6785600	23.7458870
287.4450000	-35.5754510
329.0097900	41.8832050
340.9371400	-25.8501170
304.5618600	22.4433790
293.1944700	9.2286095
355.3389400	17.5152170
318.6745400	-35.0313380
324.8908800	-41.5621050
287.9809300	36.9975430
328.0213800	3.3723715
355.9040800	41.5106790
277.0911000	19.8402670
318.6030200	5.6636105
319.9618200	-31.7732570
267.2061800	-12.9702970
283.7744500	-31.7331430
314.3483100	20.6885600
327.5614800	23.8326840
295.8154300	35.0751090
319.5451600	-14.2475940
284.8140700	-19.5971750
331.6388600	-41.3411060
294.1637900	-2.3329578
265.9269400	-10.3564580
292.5193400	4.7925462
331.5456300	-20.9005050
304.1992400	3.3689817
287.3696700	-9.2473618
310.4883900	-17.9960400
273.5215900	-27.0857750
289.9529300	6.8592288
300.8370500	42.4783630
319.2548600	11.5920570
245.1499300	17.1003500
241.9995900	-25.8682540
320.7815100	-17.2283080
292.3080000	-36.3287240
281.0029200	-42.5748960
278.9988400	-1.5345901
294.6280100	-8.9440862
270.8467500	28.8908640
245.6198600	7.7405892
304.0708600	-5.5825686
298.2168800	27.7777500
304.7794900	-29.8223290
256.7933900	-46.5091350
251.3885400	22.2306420
298.7765400	-8.7176260
221.9128700	-24.0587700
243.7389400	-33.7658310
281.3126700	-30.3228080
303.9522400	10.7976690
217.0520700	-41.7405840
249.8794900	24.0627870
208.9425300	25.2142520
214.5803100	-36.0668930
289.6584400	23.5111090
277.4468900	29.7820950
264.0030400	1.4939236
213.6142900	-42.1469660
286.0520100	43.1710870
216.5297100	40.2888230
275.6345700	-35.4128960
268.5564700	-11.4906610
238.4903000	20.0492450
223.7750400	24.5897430
210.0111200	-35.1950240
195.3163000	-12.2510370
258.5432400	-38.3890000
235.3950300	-29.4069220
204.5344000	2.9726047
220.5791400	-37.3450610
254.2256900	16.7083760
253.2444600	-41.0624300
244.3215900	-46.6458090
188.2505000	-46.8678070
224.1873500	-3.7786716
251.7498500	-1.8645608
205.6233500	-20.7374890
244.8379400	-33.9674040
178.9614000	39.9084380
182.1435700	24.5078890
209.7832700	-20.1549390
263.7682600	20.1537840
254.0832600	-0.9778205
235.4675800	42.1210980
219.1710600	-5.7836979
180.3465500	-0.7362578
208.0350600	-20.8143540
243.0255500	35.9011450
171.6046000	-4.8948363
231.2919300	24.1125950
174.3626000	-4.7756442
204.5724000	-19.9122120
205.0013900	45.9753150
253.3899000	31.1773160
207.9743500	44.8452950
170.6776000	16.1861200
181.2801800	27.7478660
178.6033300	-16.3444790
219.9702300	18.6615500
160.3813700	9.1064702
171.3474300	40.4063920
157.6165300	29.2566360
188.4159500	45.7254610
215.7762900	-43.6803470
192.2596700	-27.6701200
210.7692200	1.8790353
201.9942900	-38.1274170
240.6263600	27.9777900
233.2724400	15.2669350
204.6220400	33.3024280
237.6216900	-32.7581660
213.7083000	9.6676386
192.2749100	-2.9334563
217.8953900	8.8081631
182.5852000	36.4412490
151.8645200	14.1378470
172.5765200	22.4513190
147.1854300	-39.5577770
138.9586500	28.3240360
150.1007600	-22.9808230
174.9709700	-22.8104150
166.5414200	-22.2649040
213.6702400	-22.6585550
203.4016000	14.5610700
141.1047100	20.6724970
213.6086700	9.8317881
189.1663700	15.0638540
184.4594200	11.5249800
203.5359800	17.4131520
151.4109500	27.2218780
163.4935000	-39.9252530
198.1515200	29.4900570
214.1613700	-7.6306753
201.9493900	-19.1929050
143.0610700	-17.3370630
185.9051800	-15.6235000
147.5959200	36.3218680
215.3886300	-1.2510657
160.9384000	45.5483380
149.2671400	-33.8496060
141.6115600	-33.0804210
176.5747900	-5.6195773
126.6489000	24.1348390
160.4980800	32.4446790
159.3219400	33.3432740
153.8056800	-24.2288230
188.9175000	-9.8539453
206.7321800	-24.6087740
203.2301100	14.9204310
126.7807300	33.5793970
198.4179500	-46.4351300
189.6301500	-30.6039590
117.9071700	-25.4050650
155.6969800	28.4486350
136.9761800	-1.9313899
125.3263400	-21.0702990
194.3604300	41.4883110
138.4732000	-39.0459020
178.6049200	-45.6681250
198.1975400	-47.0595540
118.2105400	46.3212710
109.6090000	-17.2993950
163.0390600	17.5623060
187.6495200	-32.3617800
171.2891500	3.9556585
144.3350200	-0.3461449
181.4276300	-40.4451220
177.3430400	-11.2234760
106.8045800	-4.8763963
106.3797400	45.7390610
149.0236600	38.0181450
152.3158100	35.9513160
158.8848900	-31.3640380
161.9566600	20.4405870
138.8270900	32.4248860
131.9981700	-42.7383380
156.3215700	27.5568400
109.8253700	8.4560906
128.8856000	-43.8169570
148.4116100	-20.4700260
170.3256800	1.4153905
112.6930000	8.6521911
147.9557600	-27.0366040
154.5354300	-25.3874410
176.3619400	45.4294750
117.9914800	-18.0121370
101.4999300	-46.2496040
134.4624700	-19.3464710
133.9620700	-16.5478710
96.6173600	41.5541480
113.5154600	40.1328440
87.3241230	-5.4472753
147.4111600	38.8747010
143.9436700	3.7674024
91.5154610	19.7641530
85.9927150	16.2749100
159.9322800	5.1403632
100.6302400	-31.3811440
101.6394100	-9.7592584
156.6657300	-32.8172660
171.5748600	-30.0440110
128.6688700	-28.4174210
114.1694300	-13.4942250
139.6136400	-13.8589370
160.2753500	18.9586900
168.9819000	-43.9053310
92.2394800	-27.8703600
83.0484390	37.1095400
127.9926800	-15.7350500
86.8397630	11.6550680
77.3356650	42.0486050
79.2129640	4.0095864
115.9729100	26.6875750
72.5867380	16.8757320
140.0848900	-17.0740240
126.4864600	47.0670450
147.9966300	3.3928038
154.2961500	-46.9939450
90.3193410	-4.9950103
118.0129600	43.2475270
78.8236960	19.0438190
123.9312500	-19.0137920
148.3512200	-8.1173131
67.0566710	-22.9052970
135.4754700	16.6898450
147.6482100	0.3074618
157.2177900	-42.3913100
148.0270700	-18.0190460
155.9033300	36.3729690
123.2661200	-9.3743581
102.2395200	6.9369407
64.4974540	-5.7279600
88.7850550	-16.1024380
87.3330120	-24.1769830
80.1666150	-42.8937870
64.8070400	43.3743880
123.8195000	-4.2904327
141.1647700	20.4646040
80.1792880	-5.4504462
88.7783550	-11.9119660
99.2212800	20.1528970
80.0587870	-16.6728050
72.9980240	-13.8539320
109.7039400	-11.2093050
135.1695800	-24.8962210
93.9883750	11.0428680
132.4185100	-0.9326755
105.2010800	12.6998450
105.4689900	-5.3003690
96.5632870	32.1858200
97.3601130	-14.6784860
110.0723500	29.3816960
112.8172400	-28.1012530
58.8654700	33.3921920
66.1997670	22.1304100
136.1857300	36.9984450
101.6550000	39.4898240
51.8533010	37.5194020
141.3659800	-25.3892040
85.1337010	29.1205490
106.4221800	11.1681280
106.6563300	-21.3831180
119.6410700	-31.7123610
108.0529500	44.1256560
100.4579600	2.9528380
67.1446650	-12.4364010
119.4390800	19.1313300
99.2641530	43.0638600
94.5816200	-31.3774410
129.7155500	-7.7011542
55.7319990	20.5959920
112.5412800	2.6715867
93.5700080	31.6198140
128.0890500	1.2495247
135.4549500	-13.4870550
60.0337160	38.9016860
124.2765000	-31.2177240
71.9838810	28.2907510
78.6556160	24.6259640
119.6979200	11.8058890
44.0221530	-32.2775400
79.5979100	-40.6052990
111.1332300	-9.8122269
126.2054800	-5.1576838
84.8470800	-31.5191500
112.9769100	24.7237870
72.1822730	5.7923206
41.7699000	-6.0852408
58.5070220	40.6372150
36.4727590	44.4206530
76.5128260	22.8077880
54.0635090	25.8221220
58.7599210	-32.5878500
116.2941600	37.9213880
67.0289950	37.4108590
43.5059200	-45.4899350
92.7045720	-7.7305612
84.9938170	-22.5331420
122.3049100	44.8293090
42.2779400	33.8383710
98.7252620	8.2195670
38.1849470	-4.3979872
86.2118110	-27.3640470
60.9732170	42.5295970
90.9919770	-16.5410450
91.7867450	-10.3185200
77.9843890	25.2716680
86.7577890	-36.6915930
39.0814740	-45.5864660
48.1976160	40.6999710
120.6205300	-46.6644570
47.9835330	38.2115170
89.6420440	6.6636273
56.5686290	-29.7232070
65.9671740	-28.2380640
80.7956130	-35.2640410
73.4483470	4.9177482
85.1819030	-38.8861510
68.2012540	35.3173180
89.5027880	-25.4836920
108.5328600	11.4005980
116.3895300	-16.1224330
31.0478080	-17.5422870
27.5311480	7.0644785
78.3381570	13.9645160
26.4694660	-4.7852465
48.4659660	46.8186550
71.1591760	34.9039560
95.2257060	-42.7101350
93.8388150	-35.8227620
21.3601380	5.6450650
98.8030570	-31.2678510
47.2801320	-36.2332490
79.3171290	33.7584460
89.7508510	-24.8082990
32.2726880	-7.2713842
61.1362450	-5.3385896
105.1782900	8.8737809
20.7233980	7.7782715
32.0895190	41.5598140
42.1766850	-8.0466144
20.1420150	25.0050210
73.8054210	-23.5645540
90.6455840	43.3854740
35.3439330	3.3432257
56.8192510	4.4367068
78.3274730	-17.5639010
38.9363850	0.8421650
80.4391250	-46.0329290
63.2953020	-42.3673610
30.9444200	44.9562940
35.8630410	-9.8955190
40.5722350	-10.9827380
98.2705060	-42.2879070
34.2093430	33.4828730
86.4453720	-35.7368390
92.6792220	-15.8228370
86.3285980	10.3757930
21.3426690	41.5238990
29.5922410	27.5470900
30.7705920	-12.4425720
20.5771520	-18.3247600
37.9418020	14.8707620
39.3691300	35.0541490
30.3859650	-13.8602560
44.1381800	-7.7097361
74.1449460	-5.3032750
83.7203470	24.1433260
50.0984130	39.4719210
103.6974200	4.9961663
69.5476080	-10.9445120
62.8325480	5.8356009
88.7928700	40.3217890
79.4943850	-34.6664730
33.1531940	-33.6500110
91.5425950	-23.8250930
57.5243920	-32.1750560
35.1355400	9.1913243
70.5479020	28.5335750
97.6928510	44.8858480
38.8658980	-15.6783480
82.8332260	18.1050650
20.3707040	42.8361600
16.6671880	26.7524570
25.6666290	27.7019010
87.1896520	14.0973200
63.1241100	25.6706850
19.1892450	2.8182282
39.7350110	-32.4860260
46.2944920	-40.6665140
85.8587120	-46.6690170
38.9552120	-21.6817610
89.7077000	10.9938690
71.3907750	33.3023870
72.1642390	7.4969590
23.1476900	4.2301367
96.7239630	-42.2727880
8.7555569	-15.0519630
24.5741360	20.7172340
57.9710130	31.9788860
83.1837900	-6.4891820
34.0661130	-10.4327660
33.8954130	45.4760200
51.0410880	19.3039970
7.0807697	-42.6294780
45.7987690	-41.7283390
55.3188150	-17.5460190
18.3863720	-37.0749470
3.1180673	39.6134900
53.7142680	19.5756680
88.5892270	36.2827820
39.8911030	-18.2742410
-0.3234235	-11.2303260
17.5093510	-42.0506320
10.7927810	-5.0344923
26.0393840	9.4494196
31.2310650	20.9339000
46.9540180	-10.3202050
53.7861680	1.8122181
27.1844360	-13.0158330
91.1260500	34.5616620
15.7088720	30.9759850
58.9963660	-30.4128060
43.5567800	-6.5991367
14.4906480	-29.6885270
48.4488870	-21.2118630
14.9395690	-21.7368220
88.5699470	-41.1094140
17.5620680	5.4097894
53.3607040	20.9826450
40.3417380	-26.4541550
69.5082070	-7.6249890
72.9444980	-8.6544881
22.3576250	28.3646070
29.2641440	-15.4055030
20.2550090	29.1248550
70.1706510	-38.7736350
85.2430930	41.8391180
57.8931990	-37.8616180
47.0491080	-20.8737840
51.0809680	-41.6569360
65.4819860	34.2241230
68.3820200	11.8684260
79.5681340	17.2107440
82.2501720	44.6202310
17.2499310	24.3490680
28.6959850	25.3000240
7.3086081	28.0761650
60.2424440	-7.6698692
84.0004710	-17.4301070
48.2732470	-26.4123490
12.5866420	29.5264200
67.4742250	-18.7013900
1.3141421	20.8724950
3.7836016	18.4939070
69.2453570	32.7611600
-8.2031183	-30.3651820
9.0985257	-17.5028750
49.9431480	12.7633630
67.5084530	-39.0275130
65.4254340	-23.7996100
19.1249840	9.0386962
-8.8846855	-44.2680340
40.6428190	-18.4863090
-8.3462072	-45.3692040
74.0732670	40.0225810
69.7976830	-31.5399170
26.1662020	28.7209860
14.0683120	46.4147070
23.4815760	-13.8056640
37.2683830	-3.5084907
18.9880540	11.0880830
78.0932430	32.1402640
66.7176410	-21.6442330
23.5700770	13.9880240
43.6222220	-22.7100210
73.7348970	-7.5655363
27.3261340	22.6680300
71.2743380	4.3223566
16.3271430	46.1332690
-12.6631740	-0.3341031
56.3843790	-3.8834246
34.9847300	-41.5321760
74.2006820	18.5158300
7.2244081	-21.2345510
34.2528570	42.8101170
34.2827510	17.4108270
5.7507449	-7.1759575
32.7121710	-2.8009965
37.7891160	-6.9289538
18.4697670	-29.8825660
-8.6113186	11.7974010
37.6260170	-10.7357620
53.4433620	-30.5222550
27.8801910	-38.4483930
19.1049780	-21.3928910
51.9288560	-35.5196800
67.0408120	38.3049590
76.1915500	32.4715620
13.9989360	-21.0712920
-10.9577620	-18.7960910
21.1047930	35.0261560
11.8908340	36.2460510
-4.6274475	31.2558450
43.5980820	42.3382100
10.4551070	18.7969920
63.1533470	-32.7415280
-9.2277681	-39.8144090
57.1916010	-18.5469310
60.6001850	-41.4697870
71.2441470	-13.2579990
28.2559960	-16.9466280
-10.0633670	-15.4325340
38.0876060	-46.2589920
0.4941668	12.6241920
-17.5438190	18.2860360
47.6463610	38.0435450
56.2979290	-7.3890849
63.7202110	14.4263240
-3.1250214	23.7999260
59.4713530	-9.8138740
8.7098475	-21.5598800
46.4905200	-17.2366820
19.1987140	23.9870330
69.1660420	-14.8287930
33.5089280	12.2090810
-12.1034210	23.9290230
40.5583270	-41.7415550
61.5281810	-37.7564540
1.8824459	-18.1096680
63.8334790	-19.7317410
72.4870490	-37.8870780
-5.6663359	41.7158610
33.0719500	26.4188700
-8.6333874	10.4558480
67.1053640	6.3317769
28.3618850	-40.6060530
36.3704500	-7.6123714
26.5958230	38.3539440
68.3820520	34.6149500
50.5215750	-34.9687170
11.6262210	-17.8047870
45.7396250	15.8070250
4.1345755	2.8279594
56.3220150	33.0695960
-2.5005608	4.2656547
22.1033640	-18.8721510
57.8569250	33.3902280
-18.0110000	-27.9689120
14.7832360	-38.8167190
48.4854390	-7.2086614
30.4533920	40.3735420
-3.9740490	25.8377580
29.6483460	8.9137569
22.5407000	-12.8321190
36.6307110	-39.0121240
-17.3680730	46.8133190
7.9342022	4.8878195
-13.4105400	22.2929000
-10.3172400	37.0003350
-18.6076980	-38.2369800
63.0484700	-29.3761260
13.7994890	19.1006440
48.1358370	-0.3187087
58.3443870	-6.2516268
34.1989150	20.7411070
4.1262922	-23.8729720
23.7543690	-13.9124180
-19.3253470	16.7614810
13.9871290	27.8057140
9.0613344	-38.9004760
36.9829940	-18.4270200
56.0996970	-43.7610420
17.2308930	-21.8571730
13.8287130	20.3958870
25.4217340	-25.1344950
39.8566110	8.7945353
59.9555240	-28.0417780
35.4138230	46.2388170
21.3736370	25.8572540
43.4487230	-24.6331590
58.1030520	-27.7214990
22.9761660	-29.8909990
-22.1006690	20.1711770
20.6863580	-21.4303430
18.3329570	-30.8386560
-19.3740960	-2.8042062
13.8991000	19.8039050
49.3461070	-0.9413078
6.5736442	24.7511720
-10.9994610	30.9095190
-7.0218395	-46.6433240
45.4460230	-14.2231550
0.2079088	4.9771504
15.6661620	44.9035950
19.2679130	-18.7325810
-12.1376960	-1.8545434
-22.6061830	12.8937320
55.9865750	17.7154710
13.8040430	9.2269469
23.3569210	-1.0771425
23.5545370	-6.0891351
-26.9363600	18.6713490
39.8089280	-32.6587110
49.4330150	38.2106040
20.8847620	-1.4042247
19.7516820	-20.8134020
62.8674630	40.1750680
61.4470210	43.1963350
-8.7153949	-36.5917820
40.6355190	-38.4552790
8.4807026	-8.8017348
17.5580250	34.7272060
20.9254400	7.5421514
17.3896950	31.4843630
-19.8335220	13.7235160
20.6392830	28.7176060
31.8873390	-6.2661271
33.3079760	43.1852820
-7.2773593	-10.3048740
1.4085171	-12.8720920
25.2857580	41.6130740
-19.1130610	5.2780428
-24.1463670	8.3659996
58.8265450	39.7151370
37.5096140	41.2933370
-26.9918020	-32.1882900
18.3837030	-25.3660710
20.6683510	-29.7679440
35.1071090	37.1505280
22.5567080	-7.7670189
10.1029100	26.6848530
24.1460370	-13.5199610
46.8827460	13.9452170
5.5692802	-9.1703250
-8.6757248	-0.8865366
19.5987660	-29.1784580
49.3482370	8.5325917
28.8763190	-25.9942130
-29.2702230	-30.9209860
-17.4590130	12.2985710
31.2550910	-40.2218830
-15.0941230	-31.4180440
31.8019870	-16.8234810
-12.0929150	-34.8446420
22.8081040	41.4375830
-1.1301070	23.1501100
21.5258170	3.1652102
-28.9881980	11.1702880
-29.0535840	29.3834610
30.6560430	22.3216980
-1.1280908	12.3084560
59.3871180	36.2816840
7.6709767	-11.1514610
-7.9202609	-31.6795650
12.7803180	-5.7176328
-28.6949670	-9.5229510
14.6560710	4.3487814
31.7537100	-8.2586981
25.9109100	-39.9663720
10.9264330	-0.3583182
55.8954780	-43.2533610
-0.5575191	-18.3351710
26.2562250	42.9980960
40.9270130	8.7893436
6.3494403	-46.5085660
4.1839183	-16.8387030
18.6645340	-29.4954590
-1.8750765	-41.1285980
19.4632630	-42.2333450
-27.4636730	15.7080620
10.1739480	-46.4579080
-33.0794750	-7.1975620
-8.8032139	-4.4439180
55.8010000	-32.4841240
3.2211855	-29.8732310
-24.6272030	-2.0965914
5.9300456	-2.4226140
49.9561720	-7.8332084
29.1182030	-8.0773885
-30.0061680	9.1898834
45.9479680	-6.1930531
20.2309050	-19.7584720
-19.9647450	-33.4518890
-18.3959400	6.5611378
25.8880050	37.7593650
26.5712240	19.2828220
56.4010680	-13.4913870
-14.6201410	-16.7720160
-9.6864067	3.5775389
20.4900600	-19.7529160
-1.3727862	11.7475770
13.1852700	-25.3085790
36.3848550	6.5564333
11.2472870	-30.0233120
34.1980070	-6.4029457
45.4241900	-31.6310270
9.0905750	-9.1945543
49.7053010	-14.6334050
-21.8888590	24.8425440
4.2346542	-5.3342299
57.3574890	31.0699150
36.8463250	46.2485950
-29.0974080	43.5839860
37.6630990	-42.4023210
46.5184400	38.1297930
42.7131050	31.8724530
-3.1435813	-32.9298590
-22.5364470	-12.1871660
34.8592720	29.4100410
-32.0644380	41.3332630
49.0265030	4.7387148
-27.8823630	28.1361790
-34.2843080	8.2204000
-8.3056238	32.0013360
-1.3304974	-40.7132350
48.5270310	-8.5003535
-15.0857210	-30.4875100
-22.4771510	38.9760080
46.1714250	-41.5830970
44.1639470	-4.5518690
-2.9022607	39.8483200
30.9882100	39.1884740
-19.2765770	10.6914730
-11.8035790	0.9893540
56.1898550	45.9220780
-35.3545860	-7.5394655
8.0130313	-20.0591160
0.2239907	32.8640490
-16.1614240	33.8228120
16.3829610	-15.9242290
27.3825380	-15.2512530
39.5641670	15.1799990
-33.8488960	0.6566110
-32.7561230	25.4279890
3.8754138	18.2365760
35.6956850	13.9816500
-33.0986490	28.6596960
-25.7418020	-39.7699930
-16.0509970	40.4732540
-36.7710060	9.2053052
54.6842150	-24.9635350
-19.7512650	38.9538180
39.5182750	11.3964950
11.6245120	-31.6766660
29.2308000	-8.0780557
-3.6706520	-44.1628290
10.0002550	-2.7624919
-30.7437860	39.2959830
-4.0578155	-44.1578180
37.2893000	43.2049390
10.4038530	-4.4629788
-13.4388090	20.8440550
41.2597980	45.6837340
21.7450930	32.4627520
39.0257090	-39.8186450
45.3095290	-43.6083150
38.9694750	16.7180220
31.6251390	-23.6898830
19.7517000	-37.7883120
-5.7819789	-29.7664660
31.0590490	-1.2573375
-15.5682810	-28.8547660
51.6945140	-3.2979615
-29.7010340	42.9502280
41.1839820	-31.2050390
-10.2606390	21.1020860
4.2730016	-29.8936650
-18.7404610	34.4923690
-8.0556434	15.5473750
-14.7108450	45.3099120
-31.0869080	-5.5159450
-13.7931500	44.3032140
21.9390660	1.0634555
-29.7111460	-36.9369860
-32.3056540	-15.5736500
39.5137970	27.3175130
40.5022990	-39.5210530
-22.2404870	-39.4025830
-19.5044970	-3.2499312
53.5131030	29.3641760
14.8301810	25.4360990
-32.1607410	-10.8036030
43.1837920	27.2578990
35.1865880	-45.4752840
2.3270098	-2.1387363
42.4413000	-42.8180460
54.5184180	20.5279670
17.8760570	35.6133210
7.2941964	43.2681410
-21.5134620	17.4657030
17.0371990	22.4278050
36.2700510	20.8206790
32.8635560	46.7777720
-23.3404860	-7.8810118
-23.4686510	26.2824040
17.8394180	29.6846380
-11.8670720	-28.1984360
51.0097610	-24.5928660
1.4618439	7.9805696
39.2203920	36.9591000
22.7883470	-11.1814290
16.4850550	-15.9183010
48.2013400	-4.7677186
51.6861910	15.2411790
-39.2323910	-33.8894020
-3.8080845	-17.2157320
-38.5706050	11.9252950
36.3896640	14.9250380
27.8892150	-37.4263350
38.8593490	-31.1042550
-0.3588040	22.4995880
35.4337990	-20.1833140
53.3490310	11.8273720
7.5648232	27.5203610
38.6517760	-35.3535950
-21.8715940	-16.5900170
-14.9263630	26.9578080
27.2055560	-39.9703740
13.0880140	-23.3971260
-33.3529250	1.5399698
43.7386910	-15.5590030
-17.3558330	-15.4130350
-19.8581010	39.4473300
7.6219400	31.6634160
31.2846770	-22.9830020
-8.8442025	38.6598880
52.0900950	-19.3079320
33.5690180	-16.2676980
-9.0909509	-17.2045810
38.7345480	-41.9816030
23.2502620	35.4082290
48.0845720	12.8134190
21.6112220	21.2498340
42.6608690	-24.3834270
33.8694270	17.7401010
-29.5081260	38.0843830
14.5553960	-24.3513760
1.7278830	44.3724200
37.6812330	-11.6457820
9.3846704	16.9155280
-10.2212410	8.9453905
-24.6164840	-11.6448310
-2.0399583	26.2849270
14.4293950	0.8381441
-1.7172649	-42.8315330
-8.5081882	9.8528819
2.8839160	-3.4864526
-33.5394870	-14.4108300
29.0948320	45.4571560
12.6863330	-33.5818300
13.2564750	6.4181450
-20.6256060	-5.4725016
51.6628550	44.3522910
16.4670370	5.6452117
33.7183570	21.0086600
-37.5961510	29.7743550
49.4377520	-3.7787925
-24.2418490	12.1426150
-18.7564710	-8.8735073
14.7921460	33.2147280
-32.4679090	-21.5016650
1.6921263	-1.3454272
-15.0824820	18.5667500
-14.3854180	30.9319150
5.9823840	36.9650520
44.6361030	-5.4234279
42.2602450	-19.0434930
-21.4141970	-11.5222340
47.6245760	28.1402980
-5.5823562	36.5374790
40.3155730	21.2972290
5.6027804	-40.3546920
48.9457520	35.9285870
-31.7076060	43.5131460
47.3694090	-29.9266020
-19.9299880	-23.0077220
17.3973770	0.0230651
27.6066930	0.7020789
46.9271760	-3.5153348
-36.0383540	9.0184497
-39.3187510	-16.6539120
-1.7808321	-24.9431290
41.7421450	-32.1623490
0.1408732	-5.9982954
-36.4607890	45.8297740
0.5660284	21.8285660
-14.4165970	-36.9933660
-35.2470140	21.4297270
-6.4522746	-36.2045780
-20.9555250	40.1861290
-6.6648982	20.4908280
-24.9259590	-45.8436180
28.5216870	-40.4986360
48.2313690	-14.0988660
32.4107710	-4.5504336
-41.2023700	44.7987740
-16.8500480	-17.7041140
-9.7505037	-38.4185340
37.6609600	10.6200140
-22.8958470	33.4183130
-15.8556790	-14.5928390
13.9326700	37.2004870
-41.2298800	-17.6522610
5.2193494	12.3588220
-18.5811570	25.6827520
-3.6362048	42.7681320
20.5062370	-3.0106820
-31.1080790	7.1125714
-29.3363420	-30.0068740
5.5907377	-40.9689100
33.6094800	20.0679770
-27.9457200	40.6952710
20.8736580	22.7602840
-38.7460810	4.9521979
-1.9386512	18.9653570
-6.7947903	-20.4909660
37.6125940	5.6998441
-18.1897770	-44.6769070
14.2105240	26.9917280
2.3017908	35.3853030
11.1124900	45.5766520
42.7537280	2.6248552
39.1839160	46.4676640
4.1312830	-14.8181630
18.5407390	-22.7198650
-15.5117270	24.7622920
2.0866818	16.9374960
48.8121630	13.1242850
18.7118730	5.7816439
46.2254610	46.4816290
22.4494430	28.1210270
-35.4529800	38.1930770
6.5625849	12.0154770
-19.6264590	-44.3600600
7.3206027	31.0505840
49.2581880	5.8404482
-34.9563670	28.5059980
4.6909218	27.2956240
-9.9577395	36.7513910
-28.3999420	-23.7492590
7.8983331	-7.2097433
10.5728800	38.6676230
13.5615710	8.3559211
-34.3960420	6.8650129
11.8928330	-40.9074460
-23.1610930	-14.7503740
39.2406950	19.5980890
-7.9623368	0.4408329
16.3647230	16.5309710
-1.6061764	31.1453620
44.7242300	-45.0235200
-22.2808330	-26.5508100
2.0707060	6.6016826
20.0343690	-12.2280060
-33.8548990	5.3661332
16.8005590	39.4398670
-9.6167702	9.6006808
-8.5795188	30.5557940
-32.1871520	-19.4988400
-2.6388977	13.1165970
-6.3333549	32.0154960
33.1246460	37.1703380
19.7601150	32.9719060
44.8997770	1.8332149
43.3427000	33.2799520
-16.8415710	-23.2623840
-41.8652940	19.0747560
36.3624540	-32.3598430
9.9352548	15.9676120
-6.8252754	44.8643280
45.3833250	-17.5710260
-25.9624640	-28.4187850
-36.5697640	4.7034700
27.0290500	-36.5021800
39.4085080	-11.1268960
15.0106480	17.9123890
24.0143220	-10.2145140
-24.6419540	39.1016140
